	czas	Si³a 1	Si³a 2	Odkszta³cenie	Uniwersalne	Pozycja
	[ms]	[N]	[N]	[V]	[V]	[mm]
	200	99.807	370.178	0.000	0.362	-0.08
	400	105.677	372.620	-0.001	0.362	-0.06
	600	105.677	373.840	0.001	0.363	-0.02
	800	82.194	376.282	0.003	0.365	0.04
	1000	70.452	377.808	0.001	0.366	0.10
	1200	70.452	378.113	0.000	0.367	0.16
	1400	82.194	379.944	0.000	0.367	0.24
	1600	82.194	379.944	0.000	0.367	0.30
	1800	82.194	380.249	0.000	0.367	0.36
	2000	82.194	381.165	0.001	0.367	0.44
	2200	23.484	380.554	-0.001	0.368	0.50
	2400	17.613	379.944	0.000	0.368	0.56
	2600	0.000	379.028	0.003	0.367	0.64
	2800	-35.226	378.723	0.003	0.368	0.70
	3000	-35.226	377.502	0.000	0.367	0.76
	3200	-99.807	377.502	0.001	0.367	0.84
	3400	-152.645	376.892	0.001	0.367	0.90
	3600	-223.097	375.061	0.002	0.367	0.96
	3800	-311.161	373.230	0.002	0.366	1.03
	4000	-352.258	371.704	-0.001	0.366	1.10
	4200	-880.646	367.126	0.000	0.366	1.16
	4400	-1673.227	355.225	0.003	0.366	1.24
	4600	-2636.066	337.524	0.004	0.365	1.30
	4800	-3822.003	312.805	0.002	0.363	1.36
	5000	-5107.745	283.813	0.001	0.363	1.44
	5200	-6687.037	250.854	0.002	0.361	1.50
	5400	-8606.844	209.656	0.001	0.359	1.56
	5600	-10726.265	160.522	0.002	0.356	1.64
	5800	-12875.041	104.675	0.001	0.353	1.70
	6000	-15006.204	46.082	0.000	0.348	1.76
	6200	-17014.076	-13.123	0.003	0.342	1.84
	6400	-18875.174	-72.021	0.005	0.337	1.90
	6600	-20513.175	-124.817	0.002	0.334	1.96
	6800	-21851.757	-173.950	0.002	0.330	2.04
	7000	-22955.499	-216.675	0.002	0.326	2.10
	7200	-23818.532	-254.822	0.002	0.320	2.16
	7400	-24388.016	-287.170	0.002	0.313	2.24
	7600	-24710.920	-313.721	0.001	0.306	2.30
	7800	-24863.565	-333.862	0.000	0.300	2.37
	8000	-24834.210	-347.290	0.000	0.293	2.44
	8200	-24658.081	-356.750	0.004	0.287	2.52
	8400	-24399.758	-361.633	0.002	0.280	2.56
	8600	-24200.145	-364.990	0.002	0.273	2.64
	8800	-24370.403	-370.483	0.002	0.266	2.70
	9000	-24499.565	-379.639	0.002	0.260	2.76
	9200	-24511.307	-387.573	0.002	0.253	2.84
	9400	-24411.500	-393.982	0.001	0.247	2.90
	9600	-24223.629	-398.560	-0.000	0.241	2.96
	9800	-24059.242	-402.527	0.001	0.234	3.04
	10000	-23947.693	-407.104	0.004	0.229	3.10
	10200	-23836.145	-410.767	0.004	0.222	3.16
	10400	-23683.500	-414.429	0.002	0.216	3.24
	10600	-23530.854	-418.091	0.002	0.208	3.30
	10800	-23342.983	-422.668	0.002	0.200	3.36
	11000	-23108.145	-426.025	0.002	0.193	3.44
	11200	-22826.338	-427.856	0.003	0.185	3.50
	11400	-22544.531	-428.162	-0.001	0.177	3.56
	11600	-22250.983	-429.993	0.000	0.170	3.64
	11800	-21969.176	-430.908	0.002	0.162	3.70
	12000	-21704.982	-429.077	0.005	0.156	3.76
	12200	-21452.531	-427.246	0.002	0.150	3.84
	12400	-21211.821	-426.636	0.002	0.143	3.90
	12600	-20965.240	-426.025	0.001	0.137	3.96
	12800	-20712.788	-426.941	0.002	0.129	4.04
	13000	-20495.562	-427.551	0.003	0.124	4.10
	13200	-20266.594	-429.077	0.001	0.117	4.16
	13400	-20061.110	-429.382	0.000	0.112	4.24
	13600	-19855.626	-429.382	0.002	0.107	4.36
	13800	-19638.400	-429.688	0.004	0.101	4.36
	14000	-19427.045	-429.993	0.003	0.096	4.44
	14200	-19239.174	-430.298	0.002	0.090	4.50
	14400	-19033.690	-429.688	0.002	0.083	4.57
	14600	-18863.432	-429.993	0.002	0.077	4.64
	14800	-18681.432	-431.519	0.002	0.070	4.70
	15000	-18487.690	-431.519	0.002	0.065	4.76
	15200	-18317.432	-432.434	0.000	0.059	4.85
	15400	-18153.044	-433.350	0.001	0.054	4.90
	15600	-17994.528	-434.570	0.004	0.049	4.96
	15800	-17836.012	-435.486	0.003	0.045	5.04
	16000	-17659.883	-435.791	0.002	0.041	5.10
	16200	-17501.367	-435.181	0.002	0.037	5.16
	16400	-17336.979	-434.875	0.001	0.033	5.24
	16600	-17190.205	-435.181	0.002	0.029	5.30
	16800	-17037.560	-435.486	0.002	0.026	5.36
	17000	-16861.431	-434.875	-0.000	0.021	5.44
	17200	-16732.269	-433.655	0.000	0.019	5.50
	17400	-16597.237	-433.655	0.003	0.014	5.56
	17600	-16473.947	-433.350	0.004	0.011	5.64
	17800	-16327.172	-433.350	0.002	0.007	5.70
	18000	-16192.140	-432.434	0.002	0.005	5.76
	18200	-16068.849	-430.908	0.002	0.003	5.84
	18400	-15945.559	-429.688	0.002	0.000	5.90
	18600	-15828.140	-429.077	0.002	-0.002	5.96
	18800	-15698.978	-429.382	0.000	-0.004	6.04
	19000	-15581.559	-427.856	-0.001	-0.006	6.10
	19200	-15475.881	-426.636	0.002	-0.007	6.16
	19400	-15381.946	-425.110	0.004	-0.010	6.24
	19600	-15276.268	-422.974	0.002	-0.012	6.30
	19800	-15199.946	-420.532	0.001	-0.011	6.36
	20000	-15053.171	-418.091	0.001	-0.011	6.44
	20200	-14959.236	-415.649	0.000	-0.011	6.50
	20400	-14871.171	-413.818	0.001	-0.011	6.56
	20600	-14753.752	-412.598	0.000	-0.011	6.64
	20800	-14653.945	-409.241	-0.001	-0.011	6.70
	21000	-14560.010	-406.799	0.001	-0.011	6.76
	21200	-14489.558	-404.358	0.004	-0.012	6.86
	21400	-14413.235	-401.611	0.001	-0.010	6.90
	21600	-14325.171	-400.085	-0.000	-0.010	6.96
	21800	-14237.106	-397.339	0.002	-0.009	7.04
	22000	-14172.526	-394.592	0.002	-0.009	7.10
	22200	-14072.719	-393.372	0.002	-0.009	7.16
	22400	-14025.751	-391.541	0.001	-0.009	7.27
	22600	-13925.945	-389.099	-0.001	-0.009	7.30
	22800	-13843.751	-386.658	0.001	-0.009	7.36
	23000	-13767.429	-382.690	0.004	-0.007	7.44
	23200	-13691.106	-379.944	0.002	-0.006	7.50
	23400	-13638.267	-375.977	0.001	-0.004	7.56
	23600	-13561.945	-372.925	0.001	-0.003	7.64
	23800	-13485.622	-371.094	0.001	-0.001	7.70
	24000	-13415.170	-366.821	0.002	0.001	7.76
	24200	-13362.332	-362.549	0.002	0.003	7.84
	24400	-13297.751	-355.835	-0.001	0.007	7.90
	24600	-13244.912	-349.121	-0.001	0.011	7.96
	24800	-13186.202	-342.712	0.002	0.015	8.04
	25000	-13115.751	-336.914	0.004	0.020	8.10
	25200	-13051.170	-329.895	0.001	0.025	8.16
	25400	-12992.460	-323.181	0.001	0.030	8.24
	25600	-12945.493	-314.636	0.001	0.036	8.30
	25800	-12869.170	-308.228	0.000	0.042	8.36
	26000	-12798.718	-305.481	0.002	0.043	8.44
	26200	-12763.492	-301.514	0.000	0.045	8.50
	26400	-12710.654	-296.936	0.000	0.048	8.56
	26600	-12640.202	-292.358	0.002	0.051	8.64
	26800	-12593.234	-287.476	0.004	0.055	8.70
	27000	-12552.137	-281.677	0.001	0.057	8.80
	27200	-12469.944	-276.489	0.000	0.061	8.84
	27400	-12440.589	-272.522	0.002	0.065	8.90
	27600	-12393.621	-268.250	0.001	0.067	8.96
	27800	-12323.170	-262.451	0.001	0.072	9.04
	28000	-12293.815	-256.958	0.000	0.076	9.10
	28200	-12240.976	-253.296	-0.001	0.080	9.16
	28400	-12182.266	-247.803	0.001	0.085	9.24
	28600	-12152.911	-243.530	0.004	0.088	9.30
	28800	-12117.686	-238.037	0.002	0.092	9.36
	29000	-12064.847	-233.459	0.001	0.096	9.44
	29200	-12023.750	-227.661	0.002	0.100	9.50
	29400	-11976.782	-221.558	0.002	0.103	9.56
	29600	-11935.685	-215.759	0.001	0.107	9.64
	29800	-11888.718	-210.876	0.002	0.110	9.74
	30000	-11847.621	-205.383	-0.001	0.114	9.76
	30200	-11794.782	-200.195	0.000	0.118	9.84
	30400	-11759.556	-194.702	0.004	0.123	9.90
	30600	-11706.718	-189.514	0.003	0.127	9.96
	30800	-11677.363	-183.411	0.001	0.132	10.04
	31000	-11642.137	-177.917	0.001	0.135	10.10
	31200	-11583.427	-173.035	0.001	0.139	10.16
	31400	-11542.330	-168.152	0.002	0.142	10.24
	31600	-11524.717	-164.795	0.002	0.145	10.30
	31800	-11460.137	-159.607	0.000	0.149	10.38
	32000	-11442.524	-155.640	-0.000	0.153	10.44
	32200	-11401.427	-150.757	0.002	0.155	10.50
	32400	-11348.588	-146.179	0.004	0.160	10.56
	32600	-11319.233	-141.907	0.000	0.163	10.64
	32800	-11278.137	-136.719	0.001	0.168	10.70
	33000	-11237.040	-131.836	0.001	0.171	10.76
	33200	-11213.556	-126.038	0.001	0.175	10.84
	33400	-11166.588	-121.460	0.002	0.180	10.90
	33600	-11137.233	-115.662	-0.001	0.184	10.96
	33800	-11096.136	-109.863	-0.001	0.187	11.04
	34000	-11049.169	-104.675	0.001	0.190	11.14
	34200	-11013.943	-100.098	0.004	0.193	11.16
	34400	-10972.846	-94.910	0.001	0.196	11.24
	34600	-10943.491	-90.637	-0.000	0.200	11.30
	34800	-10920.007	-86.670	0.001	0.205	11.36
	35000	-10861.298	-83.618	0.000	0.207	11.44
	35200	-10837.814	-79.651	0.001	0.209	11.50
	35400	-10784.975	-75.989	0.001	0.212	11.56
	35600	-10761.491	-72.632	-0.001	0.215	11.64
	35800	-10743.878	-68.359	0.001	0.219	11.70
	36000	-10691.039	-64.087	0.002	0.222	11.76
	36200	-10667.556	-60.425	0.001	0.226	11.84
	36400	-10626.459	-56.458	0.001	0.228	11.90
	36600	-10608.846	-50.354	0.001	0.232	11.96
	36800	-10573.620	-44.250	0.000	0.236	12.04
	37000	-10514.910	-39.062	0.000	0.240	12.10
	37200	-10509.039	-34.180	0.000	0.244	12.16
	37400	-10462.072	-29.297	-0.002	0.248	12.24
	37600	-10438.588	-25.024	-0.001	0.251	12.30
	37800	-10409.233	-21.362	0.002	0.254	12.36
	38000	-10344.652	-17.395	0.002	0.256	12.44
	38200	-10338.781	-14.038	-0.001	0.258	12.50
	38400	-10285.942	-10.071	0.000	0.261	12.56
	38600	-10268.329	-6.409	0.001	0.264	12.64
	38800	-10227.233	-2.747	0.000	0.266	12.70
	39000	-10203.749	1.831	0.002	0.269	12.76
	39200	-10174.394	5.798	-0.002	0.273	12.84
	39400	-10133.297	9.766	-0.001	0.276	12.90
	39600	-10121.555	15.564	0.000	0.279	13.02
	39800	-10062.845	18.921	0.004	0.282	13.04
	40000	-10056.974	23.499	0.001	0.285	13.10
	40200	-10004.136	28.076	0.000	0.288	13.16
	40400	-9986.523	31.738	0.000	0.290	13.24
	40600	-9945.426	35.095	0.000	0.293	13.30
	40800	-9927.813	38.147	0.001	0.297	13.36
	41000	-9880.845	42.114	-0.001	0.299	13.44
	41200	-9886.716	45.166	-0.001	0.301	13.50
	41400	-9833.878	49.133	-0.000	0.305	13.56
	41600	-9816.265	53.406	0.004	0.308	13.64
	41800	-9775.168	57.373	0.001	0.310	13.70
	42000	-9757.555	62.256	0.001	0.314	13.76
	42200	-9722.329	65.918	0.001	0.316	13.84
	42400	-9698.845	70.190	0.001	0.318	13.90
	42600	-9663.619	73.242	0.000	0.320	13.96
	42800	-9634.265	75.684	0.000	0.322	14.04
	43000	-9610.781	78.735	-0.002	0.324	14.14
	43200	-9575.555	82.397	0.001	0.327	14.16
	43400	-9557.942	86.060	0.002	0.330	14.24
	43600	-9534.458	90.027	0.002	0.333	14.30
	43800	-9510.974	93.689	0.001	0.335	14.36
	44000	-9475.748	97.046	-0.001	0.338	14.44
	44200	-9464.006	98.877	0.000	0.337	14.50
	44400	-9417.039	102.234	0.001	0.340	14.56
	44600	-9405.297	104.675	0.001	0.343	14.64
	44800	-9370.071	107.422	-0.001	0.346	14.70
	45000	-9352.458	110.779	-0.001	0.349	14.76
	45200	-9317.232	113.831	0.002	0.352	14.85
	45400	-9311.361	115.967	0.003	0.352	14.90
	45600	-9282.006	118.713	0.001	0.355	14.96
	45800	-9264.393	120.544	0.001	0.357	15.04
	46000	-9217.426	123.901	0.001	0.359	15.10
	46200	-9217.426	127.563	0.000	0.359	15.16
	46400	-9240.909	129.700	0.002	0.362	15.24
	46600	-9287.877	130.920	-0.001	0.362	15.30
	46800	-9317.232	131.226	0.000	0.362	15.36
	47000	-9340.716	132.141	0.001	0.363	15.44
	47200	-9346.587	132.446	0.004	0.364	15.50
	47400	-9334.845	133.057	0.001	0.365	15.56
	47600	-9346.587	133.057	0.001	0.366	15.64
	47800	-9328.974	132.751	0.002	0.366	15.70
	48000	-9334.845	132.751	0.001	0.367	15.76
	48200	-9305.490	132.446	0.002	0.367	15.84
	48400	-9323.103	133.057	-0.000	0.367	15.90
	48600	-9299.619	131.531	0.000	0.367	15.96
	48800	-9311.361	131.531	0.000	0.367	16.04
	49000	-9287.877	132.751	0.005	0.366	16.10
	49200	-9264.393	132.446	0.001	0.367	16.16
	49400	-9270.264	133.972	0.001	0.368	16.24
	49600	-9258.522	133.972	0.001	0.367	16.30
	49800	-9276.135	134.583	0.001	0.367	16.36
	50000	-9252.651	134.277	0.002	0.367	16.43
	50200	-9240.909	134.888	0.001	0.367	16.50
	50400	-9240.909	134.583	0.000	0.367	16.57
	50600	-9217.426	133.362	-0.000	0.366	16.64
	50800	-9223.297	132.751	0.003	0.367	16.70
	51000	-9199.813	131.836	0.001	0.366	16.76
	51200	-9223.297	131.531	0.002	0.365	16.84
	51400	-9317.232	130.005	0.002	0.364	16.90
	51600	-9387.684	128.174	0.002	0.364	16.96
	51800	-9428.781	126.648	0.002	0.364	17.04
	52000	-9481.619	125.122	0.002	0.362	17.10
	52200	-9522.716	123.291	-0.001	0.361	17.16
	52400	-9552.071	121.765	0.001	0.360	17.24
	52600	-9587.297	119.324	0.002	0.360	17.30
	52800	-9587.297	117.188	0.005	0.359	17.36
	53000	-9616.652	113.220	0.001	0.356	17.43
	53200	-9616.652	108.643	0.002	0.354	17.50
	53400	-9616.652	104.065	0.002	0.349	17.60
	53600	-9646.006	99.792	0.002	0.344	17.64
	53800	-9622.523	95.825	0.002	0.341	17.73
	54000	-9646.006	90.942	-0.000	0.337	17.76
	54200	-9628.394	88.501	0.000	0.333	17.84
	54400	-9640.135	87.891	0.002	0.333	17.90
	54600	-9640.135	85.449	0.004	0.331	17.96
	54800	-9628.394	83.008	0.002	0.329	18.04
	55000	-9640.135	79.041	0.001	0.326	18.10
	55200	-9622.523	75.989	0.001	0.322	18.16
	55400	-9628.394	76.294	0.002	0.323	18.24
	55600	-9622.523	72.632	0.002	0.320	18.30
	55800	-9604.910	67.444	0.002	0.316	18.36
	56000	-9610.781	65.918	0.000	0.315	18.43
	56200	-9593.168	62.561	0.001	0.312	18.50
	56400	-9581.426	57.983	0.004	0.308	18.57
	56600	-9587.297	54.321	0.002	0.305	18.64
	56800	-9569.684	50.964	0.001	0.301	18.70
	57000	-9546.200	46.997	0.002	0.297	18.76
	57200	-9557.942	44.556	0.002	0.294	18.84
	57400	-9534.458	39.673	0.002	0.290	18.90
	57600	-9522.716	36.316	0.002	0.286	18.96
	57800	-9510.974	32.654	0.000	0.282	19.04
	58000	-9493.361	28.687	0.001	0.278	19.10
	58200	-9481.619	25.024	0.004	0.275	19.16
	58400	-9464.006	21.057	0.003	0.270	19.24
	58600	-9446.393	17.395	0.002	0.266	19.30
	58800	-9446.393	14.343	0.001	0.262	19.36
	59000	-9422.910	9.460	0.002	0.258	19.43
	59200	-9393.555	5.798	0.002	0.254	19.50
	59400	-9387.684	2.136	0.003	0.250	19.57
	59600	-9370.071	-2.441	-0.001	0.245	19.64
	59800	-9346.587	-7.629	0.001	0.241	19.70
	60000	-9328.974	-11.292	0.003	0.237	19.76
	60200	-9305.490	-14.954	0.005	0.233	19.84
	60400	-9287.877	-18.616	0.002	0.229	19.90
	60600	-9282.006	-22.583	0.002	0.225	19.96
	60800	-9252.651	-27.161	0.001	0.218	20.04
	61000	-9217.426	-30.518	0.001	0.214	20.10
	61200	-9217.426	-33.569	0.003	0.210	20.16
	61400	-9170.458	-36.926	0.002	0.205	20.24
	61600	-9146.974	-40.588	-0.001	0.201	20.30
	61800	-9129.361	-44.250	0.002	0.196	20.42
	62000	-9082.393	-49.133	0.005	0.193	20.43
	62200	-9076.522	-53.101	0.002	0.189	20.50
	62400	-9053.038	-56.458	0.002	0.184	20.56
	62600	-9029.554	-60.425	0.002	0.179	20.64
	62800	-8994.329	-64.392	0.002	0.174	20.70
	63000	-8970.845	-69.275	0.002	0.169	20.76
	63200	-8941.490	-73.853	0.002	0.163	20.84
	63400	-8900.393	-78.430	0.000	0.158	20.90
	63600	-8888.651	-83.618	0.001	0.153	20.96
	63800	-8859.296	-87.891	0.004	0.149	21.04
	64000	-8812.328	-91.553	0.002	0.143	21.10
	64200	-8794.716	-97.046	0.001	0.137	21.16
	64400	-8788.845	-101.624	0.001	0.132	21.24
	64600	-8741.877	-106.506	0.002	0.126	21.30
	64800	-8712.522	-112.000	0.002	0.121	21.36
	65000	-8694.909	-117.188	0.002	0.115	21.44
	65200	-8659.683	-122.375	0.001	0.109	21.50
	65400	-8618.586	-127.258	0.000	0.105	21.56
	65600	-8606.844	-132.141	0.003	0.101	21.64
	65800	-8589.232	-135.803	0.004	0.097	21.70
	66000	-8536.393	-140.076	0.002	0.092	21.76
	66200	-8518.780	-143.738	0.001	0.087	21.84
	66400	-8512.909	-148.010	0.001	0.083	21.90
	66600	-8471.812	-151.672	0.001	0.078	21.96
	66800	-8430.715	-154.724	0.002	0.074	22.04
	67000	-8418.973	-158.997	-0.001	0.069	22.10
	67200	-8383.748	-161.743	-0.001	0.066	22.16
	67400	-8348.522	-165.100	0.001	0.063	22.24
	67600	-8330.909	-166.626	0.005	0.060	22.30
	67800	-8307.425	-169.373	0.001	0.056	22.36
	68000	-8266.328	-172.424	0.001	0.053	22.44
	68200	-8242.844	-175.171	0.001	0.049	22.54
	68400	-8219.360	-177.612	0.001	0.046	22.56
	68600	-8195.876	-180.054	0.002	0.042	22.64
	68800	-8154.780	-182.495	-0.001	0.038	22.70
	69000	-8125.425	-184.631	-0.001	0.037	22.76
	69200	-8119.554	-186.462	0.001	0.034	22.84
	69400	-8078.457	-187.683	0.004	0.031	22.90
	69600	-8060.844	-189.819	0.001	0.028	23.02
	69800	-8031.489	-192.871	0.000	0.024	23.04
	70000	-8013.876	-195.618	0.001	0.022	23.10
	70200	-7972.780	-198.364	0.002	0.019	23.16
	70400	-7949.296	-198.364	0.002	0.018	23.24
	70600	-7937.554	-199.280	0.001	0.016	23.30
	70800	-7914.070	-201.416	-0.001	0.013	23.36
	71000	-7878.844	-203.857	-0.001	0.010	23.44
	71200	-7843.618	-204.468	0.003	0.007	23.50
	71400	-7843.618	-206.299	0.003	0.004	23.56
	71600	-7814.263	-206.909	0.001	0.004	23.64
	71800	-7773.167	-207.520	0.000	0.002	23.70
	72000	-7749.683	-207.825	0.001	0.000	23.76
	72200	-7737.941	-208.130	0.001	-0.001	23.84
	72400	-7714.457	-209.351	0.002	-0.002	23.90
	72600	-7685.102	-210.876	0.000	-0.003	23.96
	72800	-7649.876	-211.792	-0.001	-0.005	24.04
	73000	-7720.328	-213.013	0.002	-0.006	24.10
	73200	-7831.876	-215.454	0.004	-0.006	24.16
	73400	-7896.457	-218.506	0.002	-0.007	24.24
	73600	-7972.780	-222.168	0.001	-0.009	24.30
	73800	-8066.715	-223.694	0.002	-0.010	24.36
	74000	-8190.005	-226.746	0.001	-0.010	24.44
	74200	-8266.328	-228.882	0.002	-0.011	24.50
	74400	-8348.522	-231.323	0.000	-0.011	24.56
	74600	-8442.457	-234.680	0.000	-0.011	24.64
	74800	-8489.425	-236.206	0.001	-0.011	24.70
	75000	-8559.877	-239.258	0.004	-0.012	24.76
	75200	-8600.974	-242.004	0.001	-0.011	24.84
	75400	-8653.812	-243.530	0.000	-0.011	24.90
	75600	-8724.264	-244.446	0.000	-0.012	24.96
	75800	-8765.361	-244.751	0.001	-0.013	25.04
	76000	-8794.716	-246.277	0.002	-0.013	25.10
	76200	-8824.070	-248.108	-0.001	-0.013	25.16
	76400	-8876.909	-248.413	-0.001	-0.014	25.28
	76600	-8912.135	-249.939	0.000	-0.015	25.30
	76800	-8947.361	-251.465	0.002	-0.013	25.36
	77000	-8976.716	-252.075	0.001	-0.012	25.44
	77200	-9006.071	-253.601	0.000	-0.013	25.50
	77400	-9017.812	-254.822	0.000	-0.013	25.56
	77600	-9041.296	-256.042	0.000	-0.013	25.64
	77800	-9088.264	-256.042	0.001	-0.013	25.70
	78000	-9111.748	-255.432	0.001	-0.014	25.76
	78200	-9123.490	-256.042	-0.002	-0.014	25.84
	78400	-9146.974	-256.653	-0.001	-0.013	25.90
	78600	-9152.845	-256.348	0.002	-0.013	25.96
	78800	-9182.200	-256.653	0.002	-0.013	26.04
	79000	-9193.942	-256.958	0.001	-0.011	26.10
	79200	-9211.555	-256.042	0.001	-0.011	26.16
	79400	-9217.426	-256.042	0.001	-0.011	26.24
	79600	-9217.426	-255.737	0.001	-0.009	26.30
	79800	-9240.909	-255.737	0.000	-0.007	26.36
	80000	-9235.038	-255.737	-0.001	-0.008	26.44
	80200	-9282.006	-255.127	-0.001	-0.008	26.50
	80400	-9287.877	-254.517	0.002	-0.007	26.56
	80600	-9311.361	-255.737	0.004	-0.006	26.64
	80800	-9311.361	-256.653	0.002	-0.006	26.70
	81000	-9323.103	-256.042	0.000	-0.004	26.76
	81200	-9346.587	-255.432	0.000	-0.004	26.88
	81400	-9358.329	-253.906	0.000	-0.003	26.90
	81600	-9370.071	-251.770	0.000	-0.002	26.96
	81800	-9399.426	-251.160	-0.001	0.001	27.04
	82000	-9399.426	-248.718	-0.002	0.002	27.10
	82200	-9405.297	-247.192	0.002	0.004	27.16
	82400	-9417.039	-245.667	0.004	0.006	27.24
	82600	-9422.910	-243.225	0.002	0.009	27.30
	82800	-9428.781	-240.784	0.002	0.012	27.36
	83000	-9434.651	-238.037	0.001	0.014	27.44
	83200	-9440.522	-234.375	0.002	0.017	27.50
	83400	-9452.264	-231.323	0.001	0.019	27.56
	83600	-9452.264	-229.187	-0.001	0.021	27.64
	83800	-9446.393	-225.525	-0.002	0.027	27.70
	84000	-9434.651	-223.999	0.000	0.030	27.76
	84200	-9428.781	-220.032	0.002	0.031	27.84
	84400	-9434.651	-216.370	0.002	0.036	27.90
	84600	-9440.522	-211.487	0.001	0.041	27.96
	84800	-9422.910	-207.825	0.001	0.044	28.04
	85000	-9440.522	-203.857	0.001	0.048	28.10
	85200	-9440.522	-199.890	0.000	0.052	28.16
	85400	-9446.393	-196.838	0.002	0.056	28.24
	85600	-9434.651	-193.176	-0.001	0.061	28.30
	85800	-9440.522	-189.209	0.000	0.064	28.36
	86000	-9434.651	-184.631	0.002	0.067	28.44
	86200	-9422.910	-180.359	0.003	0.072	28.50
	86400	-9428.781	-177.307	-0.001	0.077	28.56
	86600	-9417.039	-174.255	-0.001	0.079	28.64
	86800	-9417.039	-169.983	-0.001	0.084	28.70
	87000	-9422.910	-166.321	0.000	0.088	28.76
	87200	-9428.781	-161.438	0.001	0.092	28.84
	87400	-9440.522	-156.860	-0.001	0.095	28.90
	87600	-9428.781	-152.893	-0.001	0.100	28.96
	87800	-9428.781	-148.621	0.001	0.104	29.04
	88000	-9428.781	-144.348	0.004	0.107	29.10
	88200	-9422.910	-139.771	0.001	0.112	29.16
	88400	-9422.910	-136.108	0.000	0.115	29.24
	88600	-9422.910	-131.226	-0.001	0.120	29.30
	88800	-9417.039	-126.953	0.001	0.125	29.36
	89000	-9417.039	-121.765	0.002	0.128	29.44
	89200	-9411.168	-117.188	-0.001	0.135	29.50
	89400	-9422.910	-112.000	-0.001	0.141	29.56
	89600	-9428.781	-106.812	0.001	0.146	29.64
	89800	-9434.651	-102.539	0.002	0.150	29.70
	90000	-9428.781	-97.046	0.001	0.152	29.76
	90200	-9428.781	-93.079	0.000	0.157	29.84
	90400	-9440.522	-89.111	0.000	0.161	29.90
	90600	-9446.393	-83.618	0.001	0.166	29.96
	90800	-9446.393	-78.735	-0.000	0.169	30.04
	91000	-9458.135	-74.463	0.000	0.174	30.10
	91200	-9458.135	-68.665	-0.002	0.178	30.16
	91400	-9452.264	-63.782	-0.001	0.184	30.24
	91600	-9475.748	-57.983	0.002	0.188	30.30
	91800	-9475.748	-53.101	0.000	0.193	30.36
	92000	-9475.748	-48.523	-0.001	0.199	30.44
	92200	-9475.748	-44.250	-0.000	0.203	30.50
	92400	-9481.619	-40.283	-0.000	0.207	30.56
	92600	-9487.490	-36.011	0.000	0.210	30.64
	92800	-9493.361	-32.654	0.001	0.214	30.70
	93000	-9516.845	-28.076	-0.002	0.218	30.76
	93200	-9546.200	-24.109	-0.001	0.221	30.84
	93400	-9604.910	-19.836	0.001	0.225	30.90
	93600	-9669.490	-16.785	0.003	0.229	30.96
	93800	-9710.587	-14.038	0.000	0.234	31.04
	94000	-9751.684	-10.681	0.000	0.239	31.10
	94200	-9786.910	-7.935	0.001	0.243	31.16
	94400	-9822.136	-5.188	0.001	0.247	31.24
	94600	-9851.490	-2.747	0.001	0.251	31.30
	94800	-9874.974	-0.610	-0.001	0.254	31.36
	95000	-9910.200	2.747	-0.002	0.259	31.44
	95200	-9916.071	6.104	0.001	0.262	31.50
	95400	-9939.555	10.681	0.004	0.266	31.56
	95600	-9968.910	14.954	0.000	0.269	31.68
	95800	-10039.362	17.090	0.001	0.273	31.70
	96000	-10121.555	19.531	0.001	0.276	31.76
	96200	-10180.265	20.752	0.001	0.280	31.84
	96400	-10250.717	23.499	0.001	0.283	31.90
	96600	-10303.555	25.330	-0.001	0.287	31.96
	96800	-10356.394	27.161	-0.002	0.290	32.03
	97000	-10397.491	29.602	0.000	0.294	32.10
	97200	-10479.684	32.349	0.003	0.298	32.16
	97400	-10597.104	35.400	0.000	0.301	32.24
	97600	-10726.265	36.926	0.000	0.304	32.30
	97800	-10826.072	37.537	0.001	0.308	32.36
	98000	-10949.362	37.842	0.001	0.310	32.44
	98200	-11043.298	38.147	0.000	0.314	32.50
	98400	-11131.362	37.842	0.001	0.317	32.56
	98600	-11237.040	39.673	-0.001	0.321	32.64
	98800	-11354.459	39.978	0.000	0.324	32.70
	99000	-11495.363	40.894	0.003	0.327	32.76
	99200	-11618.653	39.368	0.002	0.329	32.84
	99400	-11747.814	38.757	0.001	0.331	32.90
	99600	-11859.363	37.842	0.000	0.332	32.97
	99800	-11965.040	37.231	0.000	0.335	33.03
	100000	-12094.202	37.231	0.000	0.337	33.10
	100200	-12217.492	37.231	0.001	0.341	33.16
	100400	-12329.041	36.621	-0.002	0.343	33.24
	100600	-12446.460	36.316	-0.001	0.345	33.30
	100800	-12604.976	35.706	0.002	0.347	33.36
	101000	-12810.460	34.180	0.004	0.349	33.44
	101200	-13121.622	29.907	0.001	0.350	33.50
	101400	-13397.557	25.330	0.002	0.351	33.56
	101600	-13632.396	20.142	0.001	0.352	33.64
	101800	-13843.751	16.174	0.001	0.354	33.70
	102000	-14049.235	11.597	0.002	0.355	33.76
	102200	-14219.493	8.545	-0.000	0.357	33.84
	102400	-14378.010	4.578	-0.001	0.358	33.90
	102600	-14560.010	0.916	0.002	0.359	33.97
	102800	-14695.042	-2.747	0.004	0.360	34.03
	103000	-14806.591	-5.493	0.002	0.361	34.10
	103200	-14935.752	-8.850	0.001	0.362	34.16
	103400	-15035.558	-11.292	0.001	0.362	34.24
	103600	-15135.365	-14.038	0.001	0.362	34.30
	103800	-15223.430	-16.785	0.002	0.362	34.36
	104000	-15311.494	-19.836	0.001	0.362	34.44
	104200	-15405.430	-22.888	0.000	0.362	34.50
	104400	-15464.139	-25.330	0.001	0.362	34.56
	104600	-15552.204	-26.855	0.004	0.362	34.64
	104800	-15622.656	-29.602	0.002	0.362	34.70
	105000	-15698.978	-31.128	0.001	0.361	34.76
	105200	-15745.946	-33.264	0.001	0.360	34.84
	105400	-15834.011	-35.400	0.001	0.361	34.90
	105600	-15886.849	-36.621	0.002	0.360	34.97
	105800	-15945.559	-39.062	0.002	0.361	35.03
	106000	-15980.785	-40.894	0.000	0.360	35.10
	106200	-16021.882	-43.945	0.001	0.360	35.16
	106400	-16051.237	-46.387	0.003	0.358	35.24
	106600	-16109.946	-48.218	0.004	0.357	35.30
	106800	-16151.043	-50.659	0.001	0.357	35.36
	107000	-16180.398	-53.101	0.001	0.354	35.44
	107200	-16215.624	-55.542	0.002	0.354	35.50
	107400	-16268.463	-57.373	0.002	0.352	35.56
	107600	-16309.559	-61.035	0.002	0.348	35.66
	107800	-16344.785	-65.308	-0.001	0.345	35.70
	108000	-16374.140	-69.885	0.000	0.341	35.76
	108200	-16397.624	-73.547	0.003	0.340	35.84
	108400	-16444.592	-79.651	0.004	0.336	35.90
	108600	-16473.947	-85.754	0.002	0.329	35.97
	108800	-16614.850	-93.994	0.002	0.324	36.03
	109000	-16738.140	-103.149	0.001	0.318	36.10
	109200	-16873.173	-113.831	0.001	0.312	36.16
	109400	-16984.721	-124.817	0.002	0.306	36.24
	109600	-17084.528	-133.667	0.000	0.300	36.30
	109800	-17190.205	-141.907	0.000	0.295	36.36
	110000	-17331.108	-151.367	0.002	0.290	36.44
	110200	-17442.657	-160.217	0.004	0.285	36.50
	110400	-17530.721	-169.678	0.002	0.279	36.56
	110600	-17624.657	-178.528	0.003	0.273	36.64
	110800	-17700.980	-187.378	0.002	0.267	36.70
	111000	-17783.173	-195.618	0.002	0.260	36.76
	111200	-17871.238	-204.468	0.002	0.255	36.84
	111400	-17935.818	-210.571	0.000	0.251	36.90
	111600	-17994.528	-216.675	-0.001	0.247	36.97
	111800	-18047.367	-223.999	0.001	0.242	37.03
	112000	-18076.722	-231.018	0.004	0.237	37.10
	112200	-18123.690	-237.732	0.002	0.233	37.16
	112400	-18176.528	-244.446	0.001	0.227	37.24
	112600	-18217.625	-251.160	0.001	0.222	37.30
	112800	-18270.464	-258.179	0.002	0.216	37.36
	113000	-18305.690	-263.672	0.002	0.210	37.44
	113200	-18311.561	-270.081	0.002	0.204	37.50
	113400	-18340.916	-276.184	-0.001	0.198	37.56
	113600	-18370.270	-283.203	-0.000	0.193	37.64
	113800	-18399.625	-289.917	0.003	0.187	37.70
	114000	-18417.238	-295.410	0.004	0.182	37.76
	114200	-18434.851	-302.124	0.001	0.176	37.84
	114400	-18446.593	-307.617	0.000	0.170	37.90
	114600	-18458.335	-313.721	0.000	0.164	37.97
	114800	-18475.948	-321.045	0.001	0.158	38.03
	115000	-18493.561	-326.233	0.001	0.152	38.10
	115200	-18505.303	-334.473	-0.001	0.147	38.16
	115400	-18517.045	-339.050	-0.001	0.142	38.24
	115600	-18528.787	-345.764	0.002	0.136	38.30
	115800	-18528.787	-353.394	0.004	0.130	38.36
	116000	-18540.529	-360.718	0.001	0.124	38.44
	116200	-18552.271	-366.211	0.001	0.119	38.50
	116400	-18546.400	-372.620	0.002	0.114	38.56
	116600	-18546.400	-377.808	0.001	0.109	38.64
	116800	-18534.658	-382.690	0.001	0.103	38.70
	117000	-18546.400	-387.878	0.000	0.098	38.76
	117200	-18552.271	-392.761	-0.001	0.093	38.84
	117400	-18564.012	-397.034	0.000	0.089	38.90
	117600	-18552.271	-401.611	0.004	0.084	38.97
	117800	-18540.529	-406.494	0.000	0.079	39.03
	118000	-18540.529	-410.767	0.000	0.074	39.10
	118200	-18552.271	-415.649	0.000	0.070	39.16
	118400	-18546.400	-419.922	0.000	0.066	39.24
	118600	-18534.658	-423.584	0.002	0.063	39.30
	118800	-18540.529	-426.025	0.000	0.059	39.36
	119000	-18640.335	-429.993	-0.001	0.056	39.44
	119200	-18769.496	-435.791	-0.001	0.052	39.50
	119400	-18857.561	-440.979	0.003	0.049	39.56
	119600	-18951.497	-446.167	0.002	0.045	39.64
	119800	-19010.206	-451.660	0.000	0.041	39.70
	120000	-19057.174	-457.458	0.001	0.040	39.76
	120200	-19098.271	-461.731	0.001	0.036	39.84
	120400	-19127.626	-465.698	0.001	0.033	39.90
	120600	-19174.594	-469.360	0.002	0.031	39.97
	120800	-19209.819	-473.022	-0.002	0.027	40.03
	121000	-19221.561	-477.600	-0.001	0.022	40.10
	121200	-19245.045	-482.483	0.002	0.017	40.16
	121400	-19268.529	-487.061	0.004	0.014	40.24
	121600	-19303.755	-490.723	0.000	0.012	40.30
	121800	-19309.626	-493.164	0.000	0.010	40.36
	122000	-19333.110	-496.826	0.001	0.008	40.44
	122200	-19368.336	-500.183	0.001	0.005	40.50
	122400	-19403.561	-503.540	0.001	0.002	40.56
	122600	-19409.432	-506.897	-0.001	0.001	40.64
	122800	-19444.658	-509.644	-0.001	-0.001	40.70
	123000	-19485.755	-511.780	0.002	-0.001	40.82
	123200	-19526.852	-513.611	0.004	-0.003	40.84
	123400	-19526.852	-514.832	0.001	-0.005	40.90
	123600	-19538.594	-517.273	0.001	-0.006	40.96
	123800	-19538.594	-519.409	0.000	-0.009	41.04
	124000	-19550.336	-521.240	0.001	-0.011	41.10
	124200	-19556.207	-522.766	0.002	-0.013	41.16
	124400	-19526.852	-523.987	-0.000	-0.014	41.24
	124600	-19562.078	-526.733	-0.002	-0.016	41.34
	124800	-19538.594	-527.649	0.001	-0.016	41.36
	125000	-19515.110	-527.954	0.003	-0.016	41.44
	125200	-19515.110	-527.649	0.001	-0.017	41.50
	125400	-19485.755	-527.039	0.001	-0.019	41.56
	125600	-19462.271	-527.039	0.000	-0.020	41.64
	125800	-19432.916	-527.649	-0.001	-0.019	41.70
	126000	-19432.916	-527.649	0.000	-0.019	41.76
	126200	-19397.690	-527.344	-0.001	-0.018	41.84
	126400	-19374.207	-527.039	-0.002	-0.017	41.90
	126600	-19338.981	-526.428	-0.001	-0.016	41.96
	126800	-19327.239	-523.682	0.002	-0.014	42.04
	127000	-19274.400	-522.461	0.001	-0.015	42.10
	127200	-19256.787	-522.156	0.000	-0.015	42.16
	127400	-19221.561	-522.461	-0.001	-0.016	42.24
	127600	-19186.335	-521.545	-0.000	-0.017	42.30
	127800	-19145.239	-521.240	0.000	-0.016	42.36
	128000	-19115.884	-519.714	0.001	-0.016	42.44
	128200	-19080.658	-517.883	-0.002	-0.016	42.50
	128400	-19027.819	-515.442	-0.001	-0.016	42.56
	128600	-18986.722	-513.000	0.001	-0.015	42.64
	128800	-18939.755	-510.864	0.003	-0.014	42.70
	129000	-18886.916	-509.644	-0.001	-0.013	42.76
	129200	-18863.432	-507.202	-0.001	-0.012	42.84
	129400	-18810.593	-505.066	0.001	-0.012	42.90
	129600	-18763.625	-502.319	0.000	-0.011	42.96
	129800	-18775.367	-499.878	0.000	-0.009	43.04
	130000	-18863.432	-498.352	-0.001	-0.006	43.10
	130200	-18916.271	-498.657	-0.002	-0.004	43.16
	130400	-18963.239	-497.437	0.001	-0.003	43.24
	130600	-18992.593	-494.995	0.003	0.002	43.30
	130800	-18998.464	-492.249	0.000	0.004	43.36
	131000	-19021.948	-488.892	-0.001	0.008	43.44
	131200	-19033.690	-485.229	0.000	0.011	43.50
	131400	-19021.948	-481.567	0.000	0.016	43.56
	131600	-19027.819	-477.905	0.001	0.019	43.64
	131800	-19039.561	-474.548	-0.001	0.023	43.70
	132000	-19010.206	-470.886	-0.002	0.028	43.76
	132200	-19016.077	-465.393	-0.001	0.032	43.84
	132400	-19010.206	-462.341	0.002	0.036	43.90
	132600	-18980.851	-457.153	0.001	0.040	43.96
	132800	-18980.851	-451.965	0.000	0.046	44.04
	133000	-18963.239	-447.388	0.000	0.050	44.10
	133200	-18957.368	-443.115	-0.001	0.054	44.16
	133400	-18951.497	-438.843	0.000	0.058	44.24
	133600	-18916.271	-434.875	0.000	0.063	44.30
	133800	-18910.400	-430.298	-0.002	0.067	44.36
	134000	-18898.658	-426.025	-0.001	0.070	44.44
	134200	-18869.303	-421.753	0.001	0.073	44.50
	134400	-18881.045	-416.870	0.002	0.078	44.56
	134600	-18869.303	-412.292	-0.001	0.082	44.64
	134800	-18839.948	-407.104	-0.001	0.087	44.70
	135000	-18845.819	-402.527	0.000	0.090	44.76
	135200	-18822.335	-397.339	-0.001	0.094	44.84
	135400	-18810.593	-393.066	0.001	0.098	44.90
	135600	-18834.077	-388.794	-0.002	0.102	44.96
	135800	-18839.948	-384.216	-0.001	0.106	45.04
	136000	-18845.819	-381.165	0.001	0.110	45.10
	136200	-18839.948	-377.502	0.003	0.114	45.16
	136400	-18810.593	-372.925	0.001	0.118	45.24
	136600	-18810.593	-368.652	-0.001	0.122	45.30
	136800	-18781.238	-363.770	0.000	0.125	45.36
	137000	-18763.625	-359.497	-0.001	0.130	45.44
	137200	-18722.529	-353.394	0.002	0.134	45.50
	137400	-18675.561	-348.511	-0.002	0.137	45.60
	137600	-18640.335	-342.712	-0.002	0.142	45.64
	137800	-18593.367	-337.219	0.000	0.147	45.70
	138000	-18558.141	-329.590	0.002	0.153	45.76
	138200	-18505.303	-322.571	0.000	0.157	45.84
	138400	-18458.335	-316.467	-0.001	0.163	45.90
	138600	-18423.109	-310.669	0.000	0.168	45.96
	138800	-18335.045	-304.260	-0.001	0.172	46.04
	139000	-18293.948	-298.767	0.000	0.175	46.10
	139200	-18370.270	-294.189	-0.001	0.179	46.16
	139400	-18470.077	-292.053	-0.002	0.181	46.24
	139600	-18517.045	-288.086	-0.001	0.186	46.30
	139800	-18546.400	-285.034	0.002	0.190	46.36
	140000	-18564.012	-281.982	0.000	0.194	46.44
	140200	-18546.400	-278.625	-0.001	0.198	46.50
	140400	-18552.271	-274.353	-0.001	0.201	46.56
	140600	-18517.045	-270.386	0.000	0.205	46.64
	140800	-18487.690	-266.418	0.000	0.209	46.70
	141000	-18464.206	-261.230	0.000	0.214	46.76
	141200	-18417.238	-257.263	-0.002	0.216	46.84
	141400	-18399.625	-252.686	-0.001	0.220	46.90
	141600	-18323.303	-248.108	0.002	0.224	46.96
	141800	-18299.819	-242.310	0.002	0.231	47.04
	142000	-18246.980	-236.206	0.000	0.235	47.10
	142200	-18217.625	-229.492	0.000	0.240	47.16
	142400	-18158.915	-223.999	0.000	0.244	47.24
	142600	-18100.206	-218.201	-0.001	0.248	47.30
	142800	-18053.238	-212.402	0.001	0.250	47.36
	143000	-18029.754	-207.825	-0.002	0.254	47.44
	143200	-18000.399	-203.857	-0.001	0.257	47.50
	143400	-17953.431	-199.585	0.000	0.262	47.56
	143600	-17912.335	-193.176	0.002	0.267	47.64
	143800	-17847.754	-188.293	0.000	0.271	47.70
	144000	-17794.915	-183.105	-0.001	0.274	47.76
	144200	-17724.464	-177.612	0.001	0.277	47.84
	144400	-17665.754	-173.645	-0.001	0.280	47.90
	144600	-17595.302	-170.898	0.001	0.282	47.96
	144800	-17554.205	-165.710	-0.002	0.285	48.04
	145000	-17460.270	-160.828	-0.002	0.287	48.10
	145200	-17407.431	-155.334	-0.000	0.289	48.16
	145400	-17342.850	-150.757	0.002	0.292	48.24
	145600	-17266.528	-146.484	0.001	0.295	48.30
	145800	-17207.818	-140.686	0.001	0.298	48.36
	146000	-17131.495	-136.108	0.000	0.301	48.44
	146200	-17055.173	-130.615	0.000	0.304	48.50
	146400	-16984.721	-126.953	0.001	0.307	48.56
	146600	-16931.882	-122.375	-0.001	0.309	48.64
	146800	-16849.689	-118.408	-0.001	0.310	48.70
	147000	-16802.721	-115.051	-0.002	0.312	48.76
	147200	-16720.527	-110.474	0.003	0.314	48.84
	147400	-16667.689	-106.812	0.001	0.317	48.90
	147600	-16585.495	-102.539	-0.000	0.321	48.96
	147800	-16520.914	-96.741	-0.001	0.325	49.04
	148000	-16450.463	-91.858	0.000	0.327	49.10
	148200	-16397.624	-89.111	0.000	0.327	49.16
	148400	-16321.301	-86.060	0.001	0.328	49.24
	148600	-16262.592	-80.872	-0.002	0.330	49.30
	148800	-16192.140	-76.904	-0.002	0.332	49.36
	149000	-16121.688	-72.327	0.002	0.335	49.44
	149200	-16051.237	-66.833	0.002	0.337	49.50
	149400	-15986.656	-62.561	0.000	0.339	49.56
	149600	-15904.462	-58.289	-0.001	0.341	49.64
	149800	-15845.753	-55.237	0.000	0.342	49.70
	150000	-15769.430	-51.575	0.000	0.343	49.76
	150200	-15710.720	-49.133	0.002	0.345	49.84
	150400	-15646.140	-46.387	-0.001	0.346	49.90
	150600	-15575.688	-42.114	-0.002	0.347	49.96
	150800	-15499.365	-39.368	0.001	0.349	50.04
	151000	-15440.656	-35.706	0.003	0.350	50.10
	151200	-15364.333	-32.654	0.000	0.351	50.16
	151400	-15299.752	-30.518	0.000	0.352	50.24
	151600	-15252.784	-27.466	-0.001	0.354	50.30
	151800	-15164.720	-25.024	0.000	0.354	50.36
	152000	-15117.752	-23.193	0.000	0.354	50.44
	152200	-15023.817	-21.362	0.000	0.355	50.50
	152400	-14982.720	-18.311	-0.001	0.356	50.56
	152600	-14900.526	-15.869	-0.001	0.355	50.64
	152800	-14835.945	-13.428	0.003	0.355	50.70
	153000	-14783.107	-11.902	0.001	0.355	50.76
	153200	-14718.526	-10.376	0.001	0.354	50.84
	153400	-14659.816	-9.155	0.000	0.354	50.90
	153600	-14577.623	-7.019	-0.001	0.354	50.96
	153800	-14524.784	-5.798	0.001	0.354	51.04
	154000	-14454.332	-4.272	0.000	0.354	51.10
	154200	-14407.365	-2.136	-0.001	0.353	51.16
	154400	-14331.042	-0.916	-0.001	0.352	51.24
	154600	-14301.687	0.000	0.002	0.352	51.30
	154800	-14231.235	1.831	0.002	0.354	51.36
	155000	-14160.784	3.357	-0.000	0.353	51.44
	155200	-14107.945	4.578	0.001	0.353	51.50
	155400	-14037.493	6.104	0.000	0.353	51.56
	155600	-13996.396	7.324	0.001	0.352	51.66
	155800	-13955.300	7.324	0.002	0.352	51.70
	156000	-13908.332	7.935	-0.001	0.350	51.76
	156200	-13861.364	7.935	0.000	0.348	51.84
	156400	-13843.751	8.545	0.002	0.348	51.90
	156600	-13779.171	7.935	0.004	0.348	51.96
	156800	-13743.945	8.850	0.001	0.346	52.04
	157000	-13691.106	7.935	0.001	0.344	52.10
	157200	-13632.396	8.240	0.000	0.343	52.16
	157400	-13591.299	6.104	0.002	0.341	52.24
	157600	-13520.848	4.578	0.002	0.338	52.30
	157800	-13485.622	2.441	0.000	0.335	52.40
	158000	-13415.170	-1.831	0.000	0.331	52.44
	158200	-13368.203	-4.883	0.001	0.327	52.50
	158400	-13327.106	-7.324	0.004	0.323	52.56
	158600	-13250.783	-9.766	0.001	0.320	52.64
	158800	-13215.557	-11.597	0.001	0.316	52.70
	159000	-13145.106	-14.648	0.001	0.313	52.76
	159200	-13109.880	-16.785	0.001	0.309	52.84
	159400	-13062.912	-19.836	0.001	0.306	52.90
	159600	-12986.589	-22.888	0.001	0.303	52.96
	159800	-12957.234	-25.330	-0.001	0.299	53.04
	160000	-12898.525	-27.466	0.000	0.294	53.10
	160200	-12857.428	-29.297	0.003	0.291	53.16
	160400	-12816.331	-32.043	0.002	0.287	53.24
	160600	-12751.750	-34.180	0.001	0.284	53.30
	160800	-12728.267	-37.231	0.002	0.280	53.36
	161000	-12663.686	-40.588	0.001	0.276	53.44
	161200	-12622.589	-44.556	0.001	0.271	53.50
	161400	-12593.234	-49.438	0.002	0.266	53.56
	161600	-12540.396	-52.490	-0.001	0.262	53.64
	161800	-12505.170	-54.626	0.000	0.257	53.70
	162000	-12458.202	-57.678	0.004	0.254	53.77
	162200	-12405.363	-61.340	0.004	0.250	53.86
	162400	-12381.879	-63.782	0.001	0.246	53.90
	162600	-12334.911	-66.223	0.002	0.241	53.96
	162800	-12299.686	-68.359	0.002	0.238	54.04
	163000	-12264.460	-71.106	0.001	0.235	54.10
	163200	-12217.492	-72.632	0.002	0.233	54.16
	163400	-12199.879	-75.378	-0.000	0.230	54.24
	163600	-12164.653	-78.430	-0.001	0.227	54.30
	163800	-12111.815	-80.566	0.002	0.224	54.36
	164000	-12094.202	-83.923	0.004	0.221	54.44
	164200	-12053.105	-87.585	0.002	0.217	54.54
	164400	-12023.750	-90.332	0.001	0.212	54.56
	164600	-12000.266	-94.299	0.001	0.208	54.64
	164800	-11953.298	-97.351	0.001	0.204	54.70
	165000	-11941.556	-99.182	0.002	0.200	54.76
	165200	-11906.331	-101.318	-0.001	0.196	54.84
	165400	-11865.234	-105.286	-0.001	0.192	54.90
	165600	-11853.492	-108.032	0.001	0.188	54.96
	165800	-11812.395	-110.168	0.004	0.184	55.04
	166000	-11771.298	-112.915	0.001	0.182	55.10
	166200	-11765.427	-116.882	0.001	0.178	55.16
	166400	-11730.201	-119.934	0.000	0.174	55.24
	166600	-11677.363	-124.207	0.001	0.170	55.30
	166800	-11683.234	-127.258	0.002	0.166	55.39
	167000	-11636.266	-130.310	0.001	0.161	55.44
	167200	-11595.169	-133.362	-0.001	0.158	55.50
	167400	-11577.556	-136.108	-0.001	0.155	55.56
	167600	-11548.201	-139.465	0.003	0.152	55.64
	167800	-11518.846	-143.127	0.002	0.149	55.70
	168000	-11501.234	-145.569	0.000	0.145	55.76
	168200	-11483.621	-147.095	0.000	0.141	55.84
	168400	-11436.653	-149.841	0.001	0.138	55.90
	168600	-11413.169	-153.198	0.001	0.133	55.96
	168800	-11395.556	-156.860	0.001	0.129	56.04
	169000	-11354.459	-159.912	-0.002	0.125	56.10
	169200	-11330.975	-163.269	0.000	0.122	56.16
	169400	-11307.491	-167.847	0.002	0.119	56.24
	169600	-11278.137	-171.509	0.002	0.116	56.30
	169800	-11260.524	-174.255	-0.000	0.112	56.36
	170000	-11237.040	-177.612	0.002	0.107	56.44
	170200	-11219.427	-180.664	0.001	0.103	56.50
	170400	-11201.814	-182.495	0.001	0.100	56.56
	170600	-11190.072	-184.631	0.001	0.095	56.64
	170800	-11154.846	-187.378	-0.000	0.092	56.70
	171000	-11148.975	-188.599	-0.001	0.088	56.80
	171200	-11137.233	-191.040	0.000	0.085	56.84
	171400	-11107.878	-192.871	0.004	0.081	56.90
	171600	-11090.266	-195.923	0.001	0.078	56.96
	171800	-11072.653	-199.585	0.002	0.074	57.04
	172000	-11049.169	-202.332	0.001	0.071	57.10
	172200	-11037.427	-205.383	0.000	0.068	57.16
	172400	-11037.427	-209.351	0.001	0.066	57.24
	172600	-11008.072	-211.792	-0.001	0.063	57.30
	172800	-10972.846	-214.539	-0.001	0.060	57.36
	173000	-10966.975	-216.980	0.000	0.058	57.44
	173200	-10949.362	-219.116	0.002	0.056	57.50
	173400	-10908.265	-221.863	0.001	0.054	57.56
	173600	-10902.394	-224.915	0.001	0.051	57.64
	173800	-10890.652	-226.440	0.002	0.049	57.71
	174000	-10873.040	-228.882	0.001	0.047	57.76
	174200	-10837.814	-230.103	0.000	0.044	57.84
	174400	-10831.943	-232.239	0.000	0.041	57.90
	174600	-10831.943	-233.459	-0.002	0.039	57.96
	174800	-10802.588	-235.596	-0.000	0.036	58.04
	175000	-10773.233	-237.122	0.002	0.034	58.10
	175200	-10773.233	-239.563	0.002	0.031	58.16
	175400	-10755.620	-242.310	0.000	0.030	58.24
	175600	-10720.394	-244.446	0.001	0.027	58.30
	175800	-10696.910	-246.887	0.001	0.023	58.36
	176000	-10696.910	-249.634	0.001	0.021	58.44
	176200	-10667.556	-251.770	0.001	0.019	58.50
	176400	-10649.943	-252.686	-0.002	0.019	58.56
	176600	-10644.072	-253.296	0.000	0.017	58.64
	176800	-10614.717	-254.822	0.002	0.014	58.70
	177000	-10602.975	-256.348	0.003	0.011	58.76
	177200	-10567.749	-259.399	0.001	0.007	58.84
	177400	-10561.878	-262.146	0.000	0.004	58.90
	177600	-10561.878	-264.282	0.000	0.002	58.96
	177800	-10520.781	-265.503	0.000	0.000	59.04
	178000	-10509.039	-266.724	0.002	-0.001	59.10
	178200	-10503.168	-267.944	-0.001	-0.003	59.16
	178400	-10479.684	-269.470	-0.002	-0.006	59.24
	178600	-10462.072	-270.996	0.001	-0.008	59.30
	178800	-10444.459	-272.827	0.004	-0.010	59.36
	179000	-10438.588	-274.353	0.001	-0.012	59.44
	179200	-10426.846	-275.879	0.001	-0.013	59.50
	179400	-10409.233	-275.879	0.000	-0.015	59.56
	179600	-10385.749	-276.794	0.000	-0.014	59.64
	179800	-10368.136	-277.100	0.001	-0.016	59.70
	180000	-10368.136	-277.405	-0.001	-0.016	59.76
	180200	-10350.523	-277.405	-0.002	-0.017	59.84
	180400	-10321.168	-279.236	0.001	-0.017	59.90
	180600	-10315.297	-279.846	0.004	-0.018	59.96
	180800	-10315.297	-280.151	0.001	-0.020	60.04
	181000	-10285.942	-280.151	0.000	-0.022	60.10
	181200	-10262.458	-280.151	-0.000	-0.023	60.16
	181400	-10238.975	-282.593	0.000	-0.024	60.24
	181600	-10227.233	-282.288	0.000	-0.026	60.30
	181800	-10221.362	-283.203	0.000	-0.027	60.36
	182000	-10203.749	-283.508	-0.001	-0.028	60.44
	182200	-10197.878	-283.813	-0.001	-0.028	60.54
	182400	-10192.007	-285.034	0.002	-0.028	60.56
	182600	-10197.878	-285.645	0.002	-0.028	60.64
	182800	-10192.007	-286.865	0.001	-0.028	60.70
	183000	-10174.394	-286.255	0.000	-0.028	60.76
	183200	-10174.394	-286.560	0.000	-0.027	60.84
	183400	-10168.523	-286.255	0.001	-0.027	60.90
	183600	-10162.652	-285.950	0.001	-0.027	60.96
	183800	-10145.039	-285.645	-0.001	-0.027	61.04
	184000	-10133.297	-285.950	-0.001	-0.028	61.10
	184200	-10133.297	-285.950	0.002	-0.029	61.18
	184400	-10133.297	-285.034	0.003	-0.030	61.24
	184600	-10133.297	-284.729	0.001	-0.031	61.30
	184800	-10115.684	-283.813	0.001	-0.031	61.36
	185000	-10098.071	-283.508	0.001	-0.031	61.44
	185200	-10068.716	-283.813	0.000	-0.031	61.50
	185400	-10074.587	-283.813	0.002	-0.030	61.56
	185600	-10068.716	-284.424	-0.001	-0.030	61.64
	185800	-10086.329	-283.508	-0.002	-0.030	61.70
	186000	-10127.426	-284.119	0.000	-0.030	61.76
	186200	-10121.555	-284.729	0.002	-0.031	61.84
	186400	-10156.781	-285.645	0.000	-0.031	61.90
	186600	-10197.878	-285.950	0.000	-0.031	61.96
	186800	-10197.878	-286.560	0.001	-0.032	62.04
	187000	-10209.620	-286.865	0.001	-0.031	62.10
	187200	-10203.749	-286.865	0.001	-0.031	62.16
	187400	-10192.007	-287.170	0.000	-0.031	62.24
	187600	-10192.007	-286.865	-0.002	-0.031	62.30
	187800	-10203.749	-287.170	0.000	-0.030	62.36
	188000	-10203.749	-286.255	0.003	-0.029	62.44
	188200	-10203.749	-286.865	0.001	-0.029	62.50
	188400	-10180.265	-286.560	0.000	-0.029	62.56
	188600	-10180.265	-285.645	0.000	-0.029	62.64
	188800	-10186.136	-285.034	0.001	-0.030	62.70
	189000	-10168.523	-285.034	0.001	-0.029	62.76
	189200	-10180.265	-284.119	0.001	-0.030	62.84
	189400	-10168.523	-284.119	-0.001	-0.030	62.90
	189600	-10150.910	-283.508	0.000	-0.029	62.96
	189800	-10156.781	-283.203	0.002	-0.028	63.04
	190000	-10156.781	-282.898	0.002	-0.027	63.10
	190200	-10139.168	-281.372	0.001	-0.026	63.16
	190400	-10174.394	-281.372	0.000	-0.025	63.24
	190600	-10168.523	-281.982	0.000	-0.024	63.30
	190800	-10180.265	-280.457	0.001	-0.023	63.36
	191000	-10145.039	-279.846	0.000	-0.024	63.44
	191200	-10127.426	-279.846	-0.002	-0.022	63.50
	191400	-10133.297	-278.625	-0.001	-0.022	63.56
	191600	-10133.297	-276.794	0.001	-0.021	63.64
	191800	-10121.555	-275.269	0.003	-0.020	63.70
	192000	-10115.684	-275.269	0.001	-0.020	63.76
	192200	-10109.813	-273.438	0.001	-0.021	63.84
	192400	-10098.071	-270.996	0.000	-0.019	63.90
	192600	-10080.458	-270.081	0.000	-0.017	63.96
	192800	-10080.458	-268.555	0.001	-0.017	64.04
	193000	-10051.104	-266.724	-0.001	-0.016	64.10
	193200	-10056.974	-263.977	-0.002	-0.015	64.17
	193400	-10039.362	-266.724	0.001	-0.016	64.24
	193600	-10056.974	-262.451	0.004	-0.011	64.30
	193800	-10039.362	-262.146	0.000	-0.012	64.36
	194000	-10010.007	-258.179	0.000	-0.007	64.47
	194200	-9998.265	-254.822	0.001	-0.003	64.50
	194400	-9968.910	-251.465	0.001	-0.001	64.56
	194600	-9963.039	-248.413	0.001	0.002	64.64
	194800	-9957.168	-244.141	0.000	0.004	64.70
	195000	-9945.426	-240.173	-0.002	0.008	64.76
	195200	-9939.555	-236.206	0.000	0.011	64.83
	195400	-9927.813	-231.323	0.003	0.016	64.90
	195600	-9910.200	-229.797	0.001	0.018	64.96
	195800	-9892.587	-228.882	0.001	0.017	65.04
	196000	-9874.974	-227.051	0.000	0.018	65.10
	196200	-9874.974	-225.220	0.000	0.021	65.17
	196400	-9839.749	-225.525	0.000	0.020	65.24
	196600	-9822.136	-223.083	0.000	0.022	65.30
	196800	-9810.394	-220.032	-0.002	0.023	65.36
	197000	-9798.652	-219.421	-0.001	0.024	65.44
	197200	-9781.039	-217.896	0.002	0.025	65.50
	197400	-9763.426	-216.064	0.003	0.026	65.56
	197600	-9757.555	-215.149	0.001	0.027	65.64
	197800	-9745.813	-212.708	0.001	0.028	65.74
	198000	-9722.329	-211.182	0.001	0.030	65.76
	198200	-9710.587	-208.435	0.000	0.031	65.83
	198400	-9692.974	-206.604	0.001	0.032	65.90
	198600	-9663.619	-204.163	-0.001	0.034	65.97
	198800	-9640.135	-202.026	-0.000	0.034	66.04
	199000	-9622.523	-201.111	0.001	0.036	66.10
	199200	-9610.781	-198.975	0.004	0.038	66.17
	199400	-9593.168	-197.449	0.000	0.038	66.24
	199600	-9575.555	-195.923	0.000	0.040	66.30
	199800	-9563.813	-194.397	0.000	0.043	66.36
	200000	-9546.200	-191.650	-0.000	0.045	66.44
	200200	-9534.458	-188.599	0.001	0.047	66.50
	200400	-9510.974	-184.937	-0.001	0.050	66.56
	200600	-9499.232	-181.580	-0.002	0.052	66.64
	200800	-9475.748	-178.528	0.000	0.053	66.70
	201000	-9434.651	-174.255	0.002	0.058	66.76
	201200	-9428.781	-170.288	0.000	0.063	66.83
	201400	-9399.426	-166.931	-0.001	0.066	66.90
	201600	-9381.813	-162.964	0.000	0.070	66.96
	201800	-9352.458	-159.912	-0.000	0.072	67.04
	202000	-9328.974	-158.081	-0.001	0.074	67.10
	202200	-9328.974	-154.724	-0.001	0.076	67.17
	202400	-9293.748	-151.672	-0.003	0.078	67.24
	202600	-9287.877	-148.926	-0.001	0.081	67.30
	202800	-9258.522	-145.569	0.002	0.084	67.36
	203000	-9229.167	-140.686	0.001	0.088	67.44
	203200	-9223.297	-137.329	0.000	0.092	67.50
	203400	-9211.555	-131.226	0.000	0.097	67.56
	203600	-9182.200	-126.953	-0.001	0.102	67.64
	203800	-9170.458	-122.070	0.000	0.106	67.70
	204000	-9152.845	-117.798	0.001	0.110	67.76
	204200	-9146.974	-112.915	-0.002	0.114	67.83
	204400	-9117.619	-106.812	-0.001	0.120	67.90
	204600	-9094.135	-101.013	0.002	0.124	67.96
	204800	-9076.522	-96.130	0.002	0.128	68.04
	205000	-9053.038	-89.417	-0.001	0.133	68.10
	205200	-9029.554	-84.534	0.000	0.139	68.17
	205400	-9017.812	-77.209	-0.001	0.144	68.24
	205600	-9000.200	-69.580	-0.001	0.150	68.30
	205800	-8970.845	-62.256	0.000	0.156	68.36
	206000	-8959.103	-54.932	-0.002	0.162	68.44
	206200	-8929.748	-49.744	-0.002	0.166	68.50
	206400	-8912.135	-43.030	0.001	0.172	68.56
	206600	-8894.522	-36.926	0.003	0.178	68.64
	206800	-8876.909	-33.264	0.000	0.181	68.70
	207000	-8859.296	-28.687	0.000	0.186	68.76
	207200	-8829.941	-28.992	-0.001	0.185	68.83
	207400	-8806.458	-23.804	-0.001	0.189	68.90
	207600	-8788.845	-18.921	0.000	0.193	68.96
	207800	-8771.232	-13.733	-0.002	0.197	69.04
	208000	-8747.748	-8.850	-0.003	0.201	69.10
	208200	-8730.135	-3.357	-0.001	0.207	69.17
	208400	-8718.393	1.831	0.002	0.212	69.24
	208600	-8689.038	7.935	0.001	0.217	69.30
	208800	-8671.425	14.038	-0.001	0.222	69.36
	209000	-8647.941	19.836	0.000	0.226	69.44
	209200	-8624.457	25.635	0.000	0.231	69.50
	209400	-8606.844	31.433	-0.001	0.237	69.62
	209600	-8595.103	37.231	-0.001	0.241	69.64
	209800	-8577.490	42.114	-0.003	0.245	69.70
	210000	-8559.877	46.387	-0.001	0.249	69.76
	210200	-8542.264	50.659	0.002	0.252	69.83
	210400	-8530.522	54.626	0.001	0.256	69.90
	210600	-8489.425	61.340	0.000	0.259	69.96
	210800	-8489.425	65.002	0.000	0.262	70.04
	211000	-8465.941	68.970	0.000	0.266	70.10
	211200	-8442.457	74.768	0.000	0.269	70.17
	211400	-8430.715	77.209	0.000	0.272	70.24
	211600	-8407.231	81.482	-0.002	0.275	70.30
	211800	-8395.490	85.754	-0.001	0.280	70.36
	212000	-8383.748	90.332	0.002	0.284	70.44
	212200	-8360.264	94.299	0.002	0.287	70.50
	212400	-8336.780	98.572	-0.001	0.290	70.56
	212600	-8372.006	100.708	-0.001	0.293	70.64
	212800	-8407.231	103.149	-0.001	0.295	70.70
	213000	-8418.973	105.591	-0.001	0.298	70.76
	213200	-8424.844	107.422	0.001	0.300	70.83
	213400	-8436.586	110.168	-0.002	0.302	70.90
	213600	-8442.457	111.694	-0.002	0.305	70.97
	213800	-8442.457	115.051	0.000	0.308	71.04
	214000	-8442.457	116.882	0.003	0.311	71.10
	214200	-8442.457	119.324	0.000	0.313	71.17
	214400	-8454.199	122.070	0.000	0.314	71.24
	214600	-8448.328	123.291	0.000	0.314	71.30
	214800	-8436.586	124.817	0.001	0.316	71.36
	215000	-8436.586	128.784	0.001	0.320	71.44
	215200	-8430.715	132.141	-0.001	0.321	71.50
	215400	-8430.715	135.498	-0.002	0.324	71.56
	215600	-8424.844	136.719	0.001	0.327	71.64
	215800	-8418.973	138.550	0.004	0.329	71.70
	216000	-8413.102	140.991	0.001	0.329	71.81
	216200	-8395.490	143.433	-0.001	0.330	71.83
	216400	-8401.360	144.958	0.000	0.331	71.90
	216600	-8395.490	145.874	-0.001	0.331	71.96
	216800	-8389.619	147.095	0.000	0.332	72.04
	217000	-8383.748	149.231	-0.000	0.334	72.10
	217200	-8389.619	149.536	-0.002	0.337	72.17
	217400	-8383.748	151.367	-0.001	0.338	72.24
	217600	-8383.748	152.588	0.004	0.339	72.30
	217800	-8366.135	154.724	0.002	0.340	72.36
	218000	-8366.135	155.640	0.001	0.341	72.44
	218200	-8366.135	156.250	0.001	0.340	72.50
	218400	-8360.264	156.860	0.000	0.342	72.57
	218600	-8342.651	157.776	0.001	0.343	72.64
	218800	-8330.909	158.997	0.001	0.341	72.70
	219000	-8325.038	159.607	-0.001	0.341	72.76
	219200	-8313.296	159.302	-0.001	0.341	72.83
	219400	-8295.683	159.912	0.002	0.341	72.90
	219600	-8301.554	160.217	0.003	0.341	72.96
	219800	-8301.554	160.828	0.001	0.342	73.06
	220000	-8289.812	161.743	0.001	0.341	73.10
	220200	-8283.941	161.133	0.001	0.342	73.17
	220400	-8289.812	162.048	0.000	0.343	73.24
	220600	-8272.199	162.659	0.001	0.341	73.30
	220800	-8278.070	162.659	-0.001	0.342	73.37
	221000	-8254.586	162.964	0.000	0.341	73.44
	221200	-8254.586	162.048	0.001	0.343	73.50
	221400	-8231.102	162.048	0.003	0.341	73.57
	221600	-8225.231	161.743	0.001	0.342	73.64
	221800	-8225.231	162.048	0.000	0.341	73.70
	222000	-8219.360	162.659	0.000	0.341	73.76
	222200	-8242.844	162.964	-0.001	0.341	73.83
	222400	-8195.876	162.964	0.001	0.341	73.90
	222600	-8207.618	162.964	0.000	0.340	73.96
	222800	-8207.618	163.269	-0.001	0.341	74.04
	223000	-8184.135	164.185	0.001	0.340	74.10
	223200	-8184.135	163.574	0.004	0.339	74.17
	223400	-8172.393	162.964	0.001	0.339	74.24
	223600	-8178.264	163.269	0.002	0.338	74.30
	223800	-8178.264	161.743	0.001	0.339	74.37
	224000	-8190.005	161.438	0.001	0.340	74.44
	224200	-8248.715	161.743	0.001	0.339	74.50
	224400	-8295.683	160.522	0.001	0.339	74.56
	224600	-8336.780	158.386	-0.001	0.338	74.64
	224800	-8366.135	157.166	0.000	0.338	74.70
	225000	-8395.490	156.250	0.004	0.337	74.76
	225200	-8430.715	155.945	0.004	0.337	74.83
	225400	-8454.199	155.640	0.002	0.337	74.90
	225600	-8477.683	153.809	0.001	0.336	74.97
	225800	-8507.038	152.893	0.002	0.336	75.04
	226000	-8536.393	151.978	0.002	0.335	75.10
	226200	-8554.006	150.757	0.001	0.335	75.17
	226400	-8577.490	149.536	-0.001	0.334	75.24
	226600	-8618.586	148.621	0.001	0.334	75.30
	226800	-8642.070	146.484	0.003	0.334	75.36
	227000	-8677.296	144.653	0.004	0.332	75.44
	227200	-8700.780	143.738	0.001	0.332	75.50
	227400	-8718.393	142.517	0.002	0.331	75.56
	227600	-8724.264	140.686	0.002	0.329	75.66
	227800	-8724.264	139.465	0.001	0.329	75.70
	228000	-8759.490	136.719	0.002	0.328	75.76
	228200	-8777.103	134.277	0.001	0.327	75.83
	228400	-8794.716	131.836	-0.001	0.325	75.90
	228600	-8818.199	129.089	0.001	0.323	75.97
	228800	-8841.683	126.343	0.005	0.322	76.04
	229000	-8835.812	125.122	0.002	0.321	76.10
	229200	-8841.683	122.986	0.000	0.319	76.19
	229400	-8847.554	120.239	0.001	0.316	76.24
	229600	-8865.167	114.746	0.002	0.313	76.30
	229800	-8882.780	114.136	0.001	0.312	76.36
	230000	-8900.393	112.000	-0.001	0.310	76.44
	230200	-8900.393	111.694	-0.000	0.308	76.50
	230400	-8912.135	109.558	0.001	0.306	76.56
	230600	-8918.006	107.117	0.003	0.304	76.64
	230800	-8912.135	103.455	0.002	0.303	76.70
	231000	-8929.748	101.013	0.001	0.301	76.77
	231200	-8953.232	99.182	0.001	0.299	76.83
	231400	-8953.232	96.130	0.002	0.296	76.90
	231600	-8947.361	92.468	0.001	0.293	76.97
	231800	-8959.103	89.417	0.001	0.290	77.04
	232000	-8994.329	86.060	0.000	0.287	77.10
	232200	-9029.554	82.397	0.001	0.285	77.17
	232400	-9064.780	79.346	0.003	0.282	77.24
	232600	-9076.522	76.294	0.003	0.280	77.30
	232800	-9088.264	72.632	0.002	0.276	77.37
	233000	-9117.619	68.054	0.001	0.271	77.44
	233200	-9141.103	64.087	0.001	0.269	77.50
	233400	-9170.458	58.899	0.001	0.265	77.56
	233600	-9199.813	54.321	0.001	0.263	77.64
	233800	-9229.167	50.659	-0.001	0.260	77.73
	234000	-9223.297	46.387	0.000	0.256	77.77
	234200	-9246.780	43.335	0.002	0.252	77.83
	234400	-9264.393	38.757	0.004	0.249	77.90
	234600	-9305.490	34.790	0.001	0.245	77.96
	234800	-9305.490	30.212	0.001	0.243	78.04
	235000	-9328.974	25.635	0.001	0.238	78.10
	235200	-9340.716	20.447	0.001	0.233	78.17
	235400	-9428.781	15.259	0.002	0.229	78.24
	235600	-9510.974	9.155	0.000	0.226	78.30
	235800	-9593.168	4.272	-0.001	0.223	78.37
	236000	-9657.748	-1.526	0.002	0.219	78.44
	236200	-9710.587	-6.104	0.004	0.216	78.50
	236400	-9751.684	-11.292	0.000	0.213	78.57
	236600	-9804.523	-16.174	0.001	0.209	78.64
	236800	-9851.490	-21.667	0.001	0.207	78.70
	237000	-9898.458	-25.330	0.001	0.203	78.76
	237200	-9921.942	-30.518	0.001	0.199	78.83
	237400	-9963.039	-34.485	0.000	0.195	78.90
	237600	-9992.394	-38.757	-0.002	0.190	78.96
	237800	-10045.233	-43.335	0.001	0.187	79.04
	238000	-10062.845	-46.997	0.004	0.185	79.10
	238200	-10098.071	-51.575	0.002	0.182	79.17
	238400	-10115.684	-55.237	0.002	0.180	79.24
	238600	-10162.652	-59.509	0.001	0.176	79.30
	238800	-10192.007	-63.782	0.002	0.174	79.37
	239000	-10203.749	-68.665	0.001	0.170	79.44
	239200	-10233.104	-72.937	0.000	0.167	79.50
	239400	-10262.458	-77.820	-0.001	0.163	79.56
	239600	-10297.684	-83.923	-0.001	0.157	79.64
	239800	-10327.039	-86.975	0.003	0.154	79.70
	240000	-10332.910	-93.079	0.002	0.149	79.76
	240200	-10362.265	-97.656	0.001	0.144	79.83
	240400	-10391.620	-103.149	0.002	0.140	79.90
	240600	-10497.297	-108.032	0.001	0.137	79.96
	240800	-10567.749	-115.356	0.001	0.132	80.04
	241000	-10632.330	-119.934	0.002	0.128	80.10
	241200	-10708.652	-126.953	0.000	0.125	80.17
	241400	-10796.717	-132.141	0.000	0.121	80.24
	241600	-10861.298	-137.634	0.002	0.119	80.30
	241800	-10920.007	-142.822	0.004	0.116	80.37
	242000	-10961.104	-147.095	0.001	0.113	80.44
	242200	-11037.427	-152.893	0.001	0.109	80.50
	242400	-11072.653	-157.776	0.002	0.106	80.57
	242600	-11119.620	-163.269	0.001	0.102	80.64
	242800	-11160.717	-167.847	0.003	0.098	80.70
	243000	-11213.556	-173.950	0.000	0.093	80.76
	243200	-11266.395	-178.833	-0.001	0.089	80.83
	243400	-11307.491	-184.937	0.002	0.085	80.90
	243600	-11330.975	-190.125	0.004	0.081	80.97
	243800	-11372.072	-195.618	0.001	0.077	81.04
	244000	-11436.653	-199.890	0.000	0.073	81.10
	244200	-11471.879	-206.604	0.002	0.068	81.17
	244400	-11483.621	-211.487	0.001	0.064	81.24
	244600	-11530.588	-216.370	0.002	0.060	81.30
	244800	-11583.427	-220.947	0.000	0.056	81.36
	245000	-11612.782	-226.746	-0.001	0.052	81.44
	245200	-11642.137	-231.018	0.002	0.049	81.50
	245400	-11665.621	-235.596	0.004	0.045	81.56
	245600	-11712.589	-240.173	0.002	0.041	81.64
	245800	-11765.427	-245.667	0.001	0.038	81.70
	246000	-11777.169	-249.634	0.002	0.034	81.76
	246200	-11824.137	-254.211	0.001	0.031	81.83
	246400	-11865.234	-258.179	0.002	0.028	81.90
	246600	-11888.718	-263.672	0.001	0.026	81.97
	246800	-11912.202	-266.418	-0.001	0.022	82.04
	247000	-11965.040	-270.386	0.001	0.019	82.10
	247200	-12000.266	-274.048	0.002	0.017	82.16
	247400	-12012.008	-277.405	0.002	0.013	82.24
	247600	-12047.234	-280.457	0.001	0.010	82.30
	247800	-12082.460	-283.813	0.002	0.008	82.37
	248000	-12094.202	-287.170	0.002	0.004	82.44
	248200	-12117.686	-290.833	0.002	0.001	82.50
	248400	-12170.524	-295.715	0.002	-0.003	82.57
	248600	-12182.266	-300.293	-0.001	-0.006	82.64
	248800	-12194.008	-303.345	0.000	-0.010	82.70
	249000	-12235.105	-305.481	0.001	-0.013	82.77
	249200	-12264.460	-309.448	0.004	-0.016	82.84
	249400	-12270.331	-312.500	0.001	-0.019	82.90
	249600	-12293.815	-317.383	0.002	-0.022	82.97
	249800	-12329.041	-321.655	0.001	-0.024	83.04
	250000	-12340.782	-322.571	0.001	-0.027	83.10
	250200	-12370.137	-325.928	0.001	-0.029	83.16
	250400	-12405.363	-328.674	0.001	-0.031	83.24
	250600	-12411.234	-330.811	-0.002	-0.031	83.30
	250800	-12422.976	-331.421	0.001	-0.033	83.37
	251000	-12434.718	-333.862	0.004	-0.034	83.44
	251200	-12464.073	-335.388	0.001	-0.035	83.50
	251400	-12475.815	-338.135	0.000	-0.038	83.57
	251600	-12505.170	-340.576	0.001	-0.039	83.64
	251800	-12516.912	-341.797	0.000	-0.042	83.70
	252000	-12528.654	-343.628	0.002	-0.042	83.77
	252200	-12552.137	-344.543	-0.001	-0.044	83.84
	252400	-12552.137	-345.459	-0.002	-0.044	83.90
	252600	-12569.750	-346.069	0.000	-0.045	83.97
	252800	-12599.105	-346.985	0.004	-0.045	84.04
	253000	-12587.363	-346.985	0.001	-0.045	84.10
	253200	-12604.976	-347.290	0.001	-0.044	84.18
	253400	-12634.331	-347.900	-0.001	-0.045	84.24
	253600	-12628.460	-348.511	0.000	-0.044	84.30
	253800	-12646.073	-348.511	0.001	-0.045	84.37
	254000	-12657.815	-348.511	0.001	-0.045	84.44
	254200	-12651.944	-349.121	-0.002	-0.045	84.50
	254400	-12669.557	-350.647	0.000	-0.045	84.57
	254600	-12669.557	-350.037	0.002	-0.045	84.64
	254800	-12669.557	-350.037	0.002	-0.045	84.70
	255000	-12693.041	-350.037	0.001	-0.045	84.77
	255200	-12698.912	-350.647	0.000	-0.045	84.84
	255400	-12687.170	-349.121	0.000	-0.044	84.90
	255600	-12710.654	-348.511	0.000	-0.044	84.97
	255800	-12704.783	-346.985	0.001	-0.044	85.04
	256000	-12716.525	-345.154	-0.001	-0.042	85.10
	256200	-12704.783	-343.933	-0.000	-0.042	85.17
	256400	-12693.041	-343.323	0.001	-0.040	85.24
	256600	-12728.267	-342.407	0.002	-0.039	85.30
	256800	-12716.525	-341.187	-0.001	-0.038	85.37
	257000	-12704.783	-340.271	0.000	-0.036	85.44
	257200	-12716.525	-338.440	0.000	-0.035	85.50
	257400	-12687.170	-335.693	0.000	-0.032	85.57
	257600	-12704.783	-333.862	0.002	-0.031	85.64
	257800	-12687.170	-331.116	-0.002	-0.028	85.70
	258000	-12681.299	-327.148	-0.001	-0.023	85.77
	258200	-12693.041	-327.148	0.000	-0.023	85.84
	258400	-12663.686	-323.792	0.004	-0.020	85.90
	258600	-12651.944	-320.129	0.000	-0.016	85.97
	258800	-12646.073	-317.688	0.000	-0.013	86.04
	259000	-12622.589	-313.721	0.001	-0.010	86.10
	259200	-12622.589	-310.669	0.000	-0.006	86.17
	259400	-12604.976	-307.922	0.001	-0.004	86.24
	259600	-12581.492	-303.955	-0.001	-0.001	86.30
	259800	-12569.750	-298.157	-0.002	0.004	86.37
	260000	-12540.396	-292.358	-0.000	0.009	86.44
	260200	-12540.396	-285.950	0.003	0.015	86.50
	260400	-12499.299	-280.151	0.002	0.020	86.56
	260600	-12487.557	-274.963	0.000	0.024	86.64
	260800	-12464.073	-268.555	0.001	0.030	86.70
	261000	-12446.460	-263.062	0.000	0.035	86.77
	261200	-12417.105	-257.263	0.001	0.041	86.84
	261400	-12393.621	-251.160	0.001	0.047	86.90
	261600	-12358.395	-244.446	-0.001	0.052	86.97
	261800	-12352.524	-238.037	0.000	0.057	87.04
	262000	-12317.299	-231.018	0.002	0.062	87.10
	262200	-12299.686	-224.915	0.002	0.067	87.17
	262400	-12264.460	-219.116	0.000	0.071	87.24
	262600	-12235.105	-214.539	0.001	0.075	87.30
	262800	-12223.363	-207.825	0.001	0.081	87.37
	263000	-12188.137	-203.857	0.000	0.086	87.44
	263200	-12164.653	-198.669	0.002	0.091	87.50
	263400	-12129.427	-194.092	-0.002	0.095	87.57
	263600	-12094.202	-189.514	-0.000	0.097	87.64
	263800	-12088.331	-184.631	0.002	0.101	87.70
	264000	-12035.492	-178.528	0.003	0.105	87.77
	264200	-12035.492	-172.119	0.001	0.111	87.84
	264400	-11988.524	-166.626	0.000	0.116	87.90
	264600	-11970.911	-159.302	0.001	0.122	87.98
	264800	-11923.943	-153.809	0.001	0.125	88.04
	265000	-11900.460	-146.790	0.001	0.132	88.10
	265200	-11894.589	-141.296	-0.001	0.138	88.17
	265400	-11835.879	-133.972	-0.002	0.144	88.24
	265600	-11824.137	-128.784	0.001	0.149	88.30
	265800	-11788.911	-122.070	0.004	0.154	88.37
	266000	-11777.169	-116.882	0.001	0.160	88.44
	266200	-11730.201	-111.389	0.001	0.165	88.50
	266400	-11724.330	-106.506	0.001	0.170	88.57
	266600	-11694.976	-101.624	0.001	0.174	88.64
	266800	-11653.879	-95.825	0.001	0.179	88.70
	267000	-11653.879	-89.722	0.000	0.184	88.77
	267200	-11606.911	-83.008	-0.001	0.189	88.84
	267400	-11589.298	-76.294	0.001	0.194	88.90
	267600	-11559.943	-69.580	0.003	0.200	88.96
	267800	-11536.459	-62.561	0.001	0.205	89.04
	268000	-11501.234	-54.626	0.000	0.212	89.10
	268200	-11495.363	-47.607	0.000	0.218	89.17
	268400	-11530.588	-40.894	0.001	0.223	89.24
	268600	-11636.266	-37.231	0.001	0.228	89.30
	268800	-11730.201	-33.569	0.001	0.232	89.37
	269000	-11783.040	-30.823	-0.001	0.238	89.44
	269200	-11847.621	-28.076	-0.001	0.242	89.50
	269400	-11888.718	-23.193	0.002	0.247	89.57
	269600	-11982.653	-19.226	0.002	0.251	89.64
	269800	-12047.234	-17.700	0.001	0.256	89.70
	270000	-12123.557	-14.954	0.001	0.260	89.77
	270200	-12170.524	-11.902	0.001	0.264	89.84
	270400	-12235.105	-9.155	0.001	0.268	89.90
	270600	-12252.718	-6.409	0.002	0.273	89.97
	270800	-12293.815	-2.747	-0.001	0.277	90.04
	271000	-12334.911	0.610	-0.001	0.281	90.10
	271200	-12352.524	3.357	0.002	0.284	90.17
	271400	-12393.621	6.714	0.004	0.287	90.24
	271600	-12399.492	10.071	0.001	0.291	90.30
	271800	-12452.331	13.733	0.002	0.295	90.37
	272000	-12446.460	17.395	0.001	0.298	90.44
	272200	-12481.686	19.531	0.001	0.300	90.50
	272400	-12481.686	21.973	0.002	0.303	90.57
	272600	-12516.912	25.024	0.000	0.307	90.64
	272800	-12516.912	28.992	-0.001	0.310	90.70
	273000	-12528.654	32.349	0.001	0.313	90.77
	273200	-12528.654	34.180	0.005	0.315	90.84
	273400	-12569.750	36.621	0.002	0.317	90.90
	273600	-12558.008	38.452	0.001	0.320	90.97
	273800	-12581.492	41.504	0.002	0.321	91.04
	274000	-12552.137	43.945	0.002	0.324	91.10
	274200	-12599.105	45.471	0.001	0.326	91.17
	274400	-12593.234	47.607	0.000	0.329	91.24
	274600	-12616.718	48.828	-0.001	0.329	91.30
	274800	-12604.976	49.133	0.001	0.332	91.37
	275000	-12622.589	49.744	0.004	0.331	91.44
	275200	-12610.847	49.438	0.002	0.332	91.50
	275400	-12634.331	49.438	0.001	0.331	91.57
	275600	-12634.331	49.744	0.002	0.331	91.64
	275800	-12640.202	50.354	0.001	0.331	91.70
	276000	-12693.041	50.354	0.002	0.331	91.77
	276200	-12875.041	48.218	0.002	0.331	91.84
	276400	-12974.847	45.471	0.000	0.332	91.90
	276600	-13057.041	42.725	0.001	0.332	91.97
	276800	-13115.751	40.283	0.004	0.331	92.04
	277000	-13180.331	37.231	0.003	0.331	92.12
	277200	-13215.557	35.400	0.002	0.331	92.17
	277400	-13274.267	33.264	0.002	0.330	92.24
	277600	-13327.106	31.433	0.002	0.328	92.30
	277800	-13409.299	28.687	0.002	0.326	92.37
	278000	-13444.525	25.635	0.003	0.326	92.44
	278200	-13497.364	22.583	0.001	0.324	92.50
	278400	-13538.461	21.362	0.001	0.324	92.57
	278600	-13561.945	18.921	0.003	0.322	92.64
	278800	-13591.299	15.869	0.005	0.321	92.70
	279000	-13620.654	13.733	0.002	0.319	92.77
	279200	-13661.751	9.460	0.002	0.316	92.84
	279400	-13679.364	4.272	0.002	0.312	92.90
	279600	-13702.848	-1.526	0.002	0.308	92.97
	279800	-13720.461	-7.629	0.002	0.302	93.04
	280000	-13749.816	-14.343	0.000	0.298	93.10
	280200	-13779.171	-19.226	0.001	0.294	93.17
	280400	-13920.074	-25.330	0.002	0.290	93.24
	280600	-14019.880	-32.959	0.005	0.287	93.30
	280800	-14113.816	-40.588	0.002	0.283	93.37
	281000	-14201.880	-48.523	0.002	0.277	93.44
	281200	-14272.332	-51.270	0.002	0.276	93.50
	281400	-14313.429	-58.899	0.002	0.269	93.57
	281600	-14372.139	-68.359	0.002	0.263	93.64
	281800	-14424.977	-75.378	0.001	0.257	93.70
	282000	-14466.074	-82.092	0.000	0.251	93.77
	282200	-14518.913	-89.417	0.001	0.246	93.84
	282400	-14536.526	-96.130	0.004	0.239	93.90
	282600	-14583.494	-102.844	0.003	0.234	93.97
	282800	-14612.849	-109.863	0.002	0.228	94.04
	283000	-14648.074	-116.272	0.002	0.223	94.10
	283200	-14677.429	-122.681	0.002	0.219	94.17
	283400	-14712.655	-127.563	0.003	0.215	94.24
	283600	-14742.010	-133.362	0.002	0.211	94.30
	283800	-14759.623	-139.160	-0.001	0.206	94.37
	284000	-14800.720	-145.874	0.001	0.201	94.48
	284200	-14806.591	-152.588	0.003	0.194	94.50
	284400	-14853.558	-158.997	0.003	0.190	94.57
	284600	-14882.913	-164.185	0.001	0.184	94.64
	284800	-14894.655	-170.898	0.001	0.179	94.70
	285000	-14900.526	-176.086	0.002	0.174	94.77
	285200	-14941.623	-182.800	0.002	0.168	94.84
	285400	-14959.236	-188.293	0.002	0.163	94.90
	285600	-14947.494	-195.618	-0.001	0.156	94.97
	285800	-14994.462	-200.500	0.001	0.150	95.04
	286000	-14988.591	-206.909	0.003	0.144	95.10
	286200	-15035.558	-214.539	0.005	0.138	95.17
	286400	-15041.429	-220.337	0.002	0.133	95.24
	286600	-15053.171	-226.440	0.000	0.128	95.30
	286800	-15076.655	-232.239	0.001	0.122	95.37
	287000	-15082.526	-238.647	0.001	0.117	95.44
	287200	-15100.139	-242.310	0.002	0.112	95.50
	287400	-15088.397	-249.634	-0.001	0.107	95.57
	287600	-15111.881	-255.127	-0.002	0.102	95.64
	287800	-15129.494	-260.925	0.001	0.097	95.70
	288000	-15123.623	-265.503	0.004	0.093	95.77
	288200	-15152.978	-270.996	0.002	0.088	95.84
	288400	-15147.107	-277.710	0.000	0.081	95.90
	288600	-15158.849	-283.508	0.001	0.074	95.97
	288800	-15176.462	-288.696	0.002	0.068	96.04
	289000	-15158.849	-293.884	0.002	0.064	96.10
	289200	-15194.075	-299.072	0.000	0.060	96.18
	289400	-15176.462	-303.040	-0.001	0.057	96.24
	289600	-15182.333	-307.922	0.000	0.052	96.30
	289800	-15194.075	-312.500	0.003	0.049	96.37
	290000	-15182.333	-316.772	0.002	0.044	96.44
	290200	-15205.817	-321.045	0.001	0.039	96.50
	290400	-15194.075	-325.012	0.001	0.035	96.57
	290600	-15194.075	-327.454	0.000	0.032	96.64
	290800	-15211.688	-332.336	0.002	0.027	96.70
	291000	-15199.946	-335.083	0.002	0.024	96.77
	291200	-15205.817	-338.440	-0.001	0.020	96.84
	291400	-15205.817	-341.187	0.001	0.018	96.90
	291600	-15188.204	-344.238	0.004	0.014	96.97
	291800	-15205.817	-348.206	0.003	0.011	97.04
	292000	-15188.204	-350.952	0.002	0.008	97.10
	292200	-15194.075	-353.394	0.002	0.005	97.17
	292400	-15199.946	-356.445	0.002	0.001	97.24
	292600	-15176.462	-359.192	0.001	-0.001	97.30
	292800	-15194.075	-360.718	0.002	-0.003	97.37
	293000	-15188.204	-362.549	0.001	-0.004	97.44
	293200	-15170.591	-363.159	0.001	-0.005	97.50
	293400	-15170.591	-366.516	0.003	-0.008	97.57
	293600	-15158.849	-368.042	0.005	-0.011	97.64
	293800	-15158.849	-371.094	0.001	-0.013	97.70
	294000	-15158.849	-372.925	0.001	-0.015	97.77
	294200	-15147.107	-375.061	0.002	-0.018	97.84
	294400	-15129.494	-377.197	0.002	-0.020	97.90
	294600	-15141.236	-378.723	0.003	-0.022	97.97
	294800	-15111.881	-380.249	0.000	-0.023	98.04
	295000	-15158.849	-381.165	-0.001	-0.024	98.10
	295200	-15288.010	-383.911	0.001	-0.024	98.17
	295400	-15358.462	-387.268	0.004	-0.026	98.24
	295600	-15440.656	-391.541	0.002	-0.027	98.30
	295800	-15487.623	-394.592	0.002	-0.031	98.37
	296000	-15522.849	-398.254	0.001	-0.033	98.44
	296200	-15569.817	-401.611	0.002	-0.035	98.50
	296400	-15599.172	-404.663	0.002	-0.038	98.57
	296600	-15628.527	-405.579	0.000	-0.039	98.64
	296800	-15663.752	-408.020	-0.001	-0.040	98.70
	297000	-15681.365	-409.546	0.001	-0.041	98.77
	297200	-15698.978	-412.292	0.004	-0.041	98.84
	297400	-15734.204	-413.513	0.002	-0.041	98.90
	297600	-15740.075	-415.344	0.002	-0.043	98.97
	297800	-15740.075	-416.260	0.002	-0.043	99.04
	298000	-15763.559	-417.480	0.001	-0.045	99.10
	298200	-15757.688	-418.701	0.001	-0.047	99.17
	298400	-15804.656	-419.617	0.001	-0.047	99.24
	298600	-15904.462	-421.753	-0.002	-0.049	99.30
	298800	-15957.301	-423.889	0.001	-0.050	99.37
	299000	-16004.269	-425.415	0.003	-0.052	99.44
	299200	-16062.979	-427.246	0.002	-0.052	99.50
	299400	-16104.075	-430.603	0.001	-0.054	99.57
	299600	-16139.301	-432.739	0.002	-0.054	99.64
	299800	-16174.527	-434.875	0.001	-0.055	99.70
	300000	-16215.624	-436.096	0.001	-0.056	99.77
	300200	-16239.108	-438.538	0.001	-0.055	99.84
	300400	-16309.559	-438.843	-0.002	-0.055	99.90
	300600	-16391.753	-440.369	0.000	-0.054	99.97
	300800	-16444.592	-441.589	0.002	-0.055	100.04
	301000	-16526.785	-443.726	0.004	-0.056	100.10
	301200	-16591.366	-446.167	0.002	-0.055	100.17
	301400	-16626.592	-447.388	0.001	-0.056	100.24
	301600	-16661.818	-449.524	0.001	-0.057	100.30
	301800	-16738.140	-450.439	0.001	-0.057	100.37
	302000	-16755.753	-452.881	0.002	-0.057	100.44
	302200	-16790.979	-454.102	-0.001	-0.056	100.50
	302400	-16826.205	-455.017	-0.001	-0.056	100.57
	302600	-16855.560	-455.933	0.001	-0.055	100.64
	302800	-16879.044	-456.848	0.004	-0.054	100.70
	303000	-16908.398	-455.627	0.001	-0.053	100.77
	303200	-16920.140	-455.933	0.001	-0.053	100.84
	303400	-16949.495	-456.848	0.002	-0.052	100.90
	303600	-16990.592	-457.458	0.002	-0.053	100.97
	303800	-17014.076	-457.458	0.002	-0.053	101.04
	304000	-17031.689	-458.069	0.001	-0.052	101.10
	304200	-17055.173	-457.153	-0.001	-0.052	101.17
	304400	-17084.528	-457.153	0.000	-0.051	101.24
	304600	-17096.270	-457.764	0.003	-0.049	101.30
	304800	-17108.011	-455.933	0.001	-0.050	101.37
	305000	-17143.237	-456.543	-0.000	-0.050	101.44
	305200	-17154.979	-455.933	-0.001	-0.049	101.50
	305400	-17154.979	-454.102	-0.001	-0.048	101.57
	305600	-17178.463	-451.965	0.000	-0.045	101.64
	305800	-17178.463	-450.439	0.000	-0.044	101.70
	306000	-17172.592	-448.303	-0.003	-0.041	101.77
	306200	-17190.205	-444.641	-0.002	-0.037	101.84
	306400	-17196.076	-443.115	0.001	-0.036	101.90
	306600	-17178.463	-438.843	0.001	-0.032	101.97
	306800	-17178.463	-433.655	-0.001	-0.027	102.04
	307000	-17190.205	-430.298	0.000	-0.023	102.10
	307200	-17201.947	-425.415	0.001	-0.020	102.17
	307400	-17190.205	-420.837	0.000	-0.015	102.24
	307600	-17172.592	-417.175	0.001	-0.011	102.30
	307800	-17166.721	-412.598	-0.001	-0.007	102.40
	308000	-17178.463	-406.189	-0.001	-0.002	102.44
	308200	-17154.979	-400.391	0.001	0.004	102.50
	308400	-17154.979	-393.677	0.004	0.009	102.57
	308600	-17149.108	-388.184	0.000	0.016	102.64
	308800	-17154.979	-382.690	0.001	0.022	102.70
	309000	-17108.011	-376.587	0.001	0.027	102.77
	309200	-17119.753	-371.704	0.000	0.031	102.84
	309400	-17125.624	-366.516	0.001	0.038	102.90
	309600	-17102.141	-360.107	-0.001	0.043	102.97
	309800	-17078.657	-354.309	-0.001	0.048	103.04
	310000	-17072.786	-348.511	0.000	0.052	103.10
	310200	-17072.786	-343.323	0.004	0.059	103.17
	310400	-17055.173	-337.219	0.001	0.064	103.26
	310600	-17049.302	-331.421	0.001	0.069	103.30
	310800	-17031.689	-324.707	0.000	0.075	103.37
	311000	-17043.431	-319.519	0.000	0.081	103.44
	311200	-17014.076	-314.026	0.000	0.085	103.50
	311400	-16996.463	-306.702	0.000	0.090	103.57
	311600	-17002.334	-301.819	-0.002	0.094	103.64
	311800	-17025.818	-296.631	-0.001	0.098	103.70
	312000	-17043.431	-292.053	0.002	0.103	103.77
	312200	-17037.560	-286.560	0.000	0.107	103.84
	312400	-17055.173	-282.593	-0.001	0.112	103.90
	312600	-17078.657	-277.710	0.000	0.117	103.97
	312800	-17072.786	-273.438	0.000	0.122	104.04
	313000	-17055.173	-268.860	0.001	0.127	104.10
	313200	-17061.044	-264.893	0.002	0.132	104.17
	313400	-17102.141	-259.705	-0.002	0.136	104.24
	313600	-17131.495	-253.906	-0.001	0.144	104.30
	313800	-17143.237	-248.413	0.002	0.150	104.37
	314000	-17149.108	-242.004	0.001	0.156	104.44
	314200	-17160.850	-236.816	0.001	0.160	104.50
	314400	-17166.721	-231.934	0.000	0.164	104.57
	314600	-17172.592	-227.661	0.000	0.168	104.64
	314800	-17160.850	-222.778	0.000	0.173	104.70
	315000	-17166.721	-217.590	0.001	0.178	104.77
	315200	-17172.592	-213.318	-0.002	0.182	104.84
	315400	-17166.721	-207.825	-0.001	0.186	104.90
	315600	-17143.237	-204.163	0.001	0.190	104.97
	315800	-17143.237	-201.721	0.003	0.193	105.04
	316000	-17143.237	-198.059	0.000	0.195	105.10
	316200	-17131.495	-195.923	0.000	0.197	105.17
	316400	-17113.882	-194.702	-0.000	0.199	105.24
	316600	-17084.528	-192.261	0.000	0.201	105.30
	316800	-17078.657	-187.073	0.000	0.204	105.37
	317000	-17066.915	-184.326	-0.002	0.207	105.44
	317200	-17037.560	-180.969	-0.002	0.210	105.50
	317400	-17019.947	-177.002	-0.001	0.213	105.57
	317600	-16990.592	-173.645	0.002	0.216	105.64
	317800	-16967.108	-169.983	-0.000	0.217	105.70
	318000	-16961.237	-166.016	-0.001	0.219	105.77
	318200	-16937.753	-162.659	-0.001	0.222	105.84
	318400	-16902.527	-159.607	0.001	0.226	105.90
	318600	-16867.302	-156.555	0.000	0.228	105.97
	318800	-16843.818	-153.198	-0.001	0.230	106.04
	319000	-16826.205	-148.926	-0.002	0.233	106.10
	319200	-16785.108	-145.569	0.000	0.236	106.17
	319400	-16773.366	-142.517	0.002	0.239	106.24
	319600	-16726.398	-138.855	0.001	0.242	106.30
	319800	-16702.914	-135.803	0.001	0.245	106.37
	320000	-16667.689	-132.141	0.001	0.247	106.44
	320200	-16650.076	-128.174	-0.001	0.251	106.50
	320400	-16614.850	-125.732	0.000	0.252	106.57
	320600	-16579.624	-121.460	0.001	0.255	106.64
	320800	-16544.398	-117.798	-0.002	0.257	106.70
	321000	-16503.301	-113.220	-0.002	0.260	106.77
	321200	-16473.947	-111.389	0.001	0.262	106.84
	321400	-16462.205	-108.337	0.001	0.263	106.90
	321600	-16409.366	-105.286	-0.001	0.265	106.97
	321800	-16380.011	-102.844	0.000	0.266	107.04
	322000	-16333.043	-100.403	0.000	0.267	107.10
	322200	-16303.688	-98.267	0.000	0.269	107.17
	322400	-16280.204	-95.825	0.001	0.271	107.24
	322600	-16250.850	-91.858	-0.002	0.273	107.30
	322800	-16203.882	-89.722	-0.001	0.276	107.37
	323000	-16168.656	-86.060	0.001	0.278	107.44
	323200	-16121.688	-82.397	0.003	0.281	107.50
	323400	-16086.462	-79.956	-0.000	0.284	107.60
	323600	-16068.849	-76.294	-0.001	0.286	107.64
	323800	-16027.753	-74.158	-0.000	0.287	107.70
	324000	-15986.656	-71.411	0.000	0.287	107.77
	324200	-15939.688	-68.359	0.001	0.288	107.84
	324400	-15910.333	-63.782	-0.001	0.290	107.90
	324600	-15869.236	-61.035	-0.001	0.291	107.97
	324800	-15822.269	-57.983	0.001	0.294	108.04
	325000	-15810.527	-54.932	0.004	0.296	108.10
	325200	-15757.688	-51.880	0.000	0.298	108.17
	325400	-15716.591	-50.659	0.000	0.300	108.24
	325600	-15669.623	-48.523	0.000	0.300	108.30
	325800	-15634.398	-46.082	0.000	0.302	108.37
	326000	-15605.043	-43.945	0.001	0.304	108.44
	326200	-15563.946	-41.809	0.001	0.306	108.56
	326400	-15534.591	-38.757	-0.002	0.307	108.57
	326600	-15481.752	-36.926	-0.000	0.307	108.64
	326800	-15440.656	-34.180	0.002	0.309	108.70
	327000	-15381.946	-30.212	0.001	0.310	108.77
	327200	-15358.462	-28.687	0.000	0.311	108.84
	327400	-15311.494	-26.550	0.000	0.312	108.90
	327600	-15293.881	-24.414	0.001	0.312	108.97
	327800	-15246.913	-22.583	0.002	0.312	109.04
	328000	-15205.817	-21.362	0.002	0.313	109.10
	328200	-15158.849	-19.836	-0.001	0.315	109.17
	328400	-15123.623	-18.311	-0.002	0.317	109.24
	328600	-15082.526	-16.479	0.002	0.317	109.30
	328800	-15029.688	-14.648	0.003	0.317	109.37
	329000	-15012.075	-13.123	0.001	0.318	109.44
	329200	-14988.591	-12.207	0.002	0.316	109.50
	329400	-14941.623	-10.986	0.001	0.317	109.57
	329600	-14900.526	-9.766	0.001	0.316	109.64
	329800	-14847.687	-8.545	0.002	0.316	109.70
	330000	-14830.074	-7.629	-0.002	0.316	109.77
	330200	-14777.236	-7.935	-0.001	0.315	109.84
	330400	-14753.752	-6.714	0.002	0.313	109.90
	330600	-14712.655	-6.409	0.004	0.314	109.97
	330800	-14683.300	-5.188	0.002	0.314	110.04
	331000	-14653.945	-3.967	0.002	0.313	110.10
	331200	-14618.719	-3.052	0.002	0.313	110.17
	331400	-14583.494	-3.357	0.002	0.313	110.24
	331600	-14530.655	-1.831	0.002	0.314	110.30
	331800	-14495.429	-2.136	0.000	0.312	110.37
	332000	-14454.332	-1.526	-0.001	0.311	110.44
	332200	-14419.106	-2.136	0.001	0.310	110.54
	332400	-14383.881	-2.136	0.004	0.310	110.57
	332600	-14360.397	-1.831	0.001	0.309	110.64
	332800	-14313.429	-1.831	0.000	0.307	110.70
	333000	-14272.332	-3.052	0.002	0.305	110.77
	333200	-14231.235	-3.052	0.001	0.304	110.84
	333400	-14190.139	-5.493	0.001	0.300	110.90
	333600	-14137.300	-8.545	0.000	0.296	110.97
	333800	-14090.332	-11.902	-0.001	0.291	111.04
	334000	-14043.364	-16.174	0.001	0.289	111.10
	334200	-13996.396	-18.921	0.004	0.284	111.17
	334400	-13949.429	-20.752	0.002	0.281	111.24
	334600	-13908.332	-21.362	0.001	0.280	111.30
	334800	-13867.235	-24.719	0.001	0.274	111.37
	335000	-13808.525	-29.602	0.002	0.270	111.44
	335200	-13749.816	-31.128	0.002	0.268	111.50
	335400	-13714.590	-36.316	0.002	0.262	111.57
	335600	-13655.880	-43.335	-0.001	0.254	111.64
	335800	-13614.783	-47.913	0.000	0.248	111.70
	336000	-13561.945	-50.964	0.004	0.245	111.77
	336200	-13509.106	-54.016	0.003	0.244	111.84
	336400	-13462.138	-56.458	0.002	0.240	111.90
	336600	-13421.041	-59.204	0.002	0.235	111.97
	336800	-13385.815	-63.477	0.001	0.230	112.04
	337000	-13327.106	-66.223	0.002	0.226	112.10
	337200	-13280.138	-68.970	0.002	0.221	112.17
	337400	-13227.299	-72.632	0.000	0.218	112.24
	337600	-13168.589	-74.768	0.000	0.215	112.30
	337800	-13109.880	-76.294	0.002	0.211	112.37
	338000	-13086.396	-77.820	0.005	0.206	112.44
	338200	-13033.557	-79.956	0.002	0.203	112.50
	338400	-12998.331	-80.872	0.001	0.199	112.57
	338600	-12951.364	-84.229	0.001	0.196	112.64
	338800	-12904.396	-87.280	0.001	0.191	112.70
	339000	-12845.686	-90.027	0.002	0.188	112.77
	339200	-12804.589	-92.773	0.001	0.183	112.84
	339400	-12763.492	-95.520	-0.001	0.180	112.90
	339600	-12716.525	-98.572	0.001	0.175	112.97
	339800	-12693.041	-101.318	0.004	0.172	113.04
	340000	-12734.138	-105.286	0.002	0.169	113.10
	340200	-12757.621	-110.168	0.002	0.165	113.17
	340400	-12769.363	-115.051	0.002	0.161	113.24
	340600	-12769.363	-119.019	0.002	0.158	113.30
	340800	-12769.363	-123.596	0.002	0.154	113.37
	341000	-12757.621	-128.174	0.000	0.150	113.44
	341200	-12751.750	-132.446	-0.001	0.145	113.50
	341400	-12740.009	-136.414	0.000	0.141	113.57
	341600	-12728.267	-141.296	0.004	0.136	113.64
	341800	-12704.783	-145.874	0.002	0.132	113.70
	342000	-12681.299	-150.146	0.001	0.126	113.77
	342200	-12651.944	-152.893	0.001	0.122	113.84
	342400	-12640.202	-156.860	0.002	0.117	113.90
	342600	-12610.847	-161.438	0.002	0.111	113.97
	342800	-12575.621	-164.185	0.001	0.107	114.04
	343000	-12552.137	-166.626	-0.001	0.103	114.10
	343200	-12528.654	-169.678	-0.000	0.099	114.17
	343400	-12487.557	-174.561	0.003	0.095	114.24
	343600	-12469.944	-175.781	0.002	0.092	114.30
	343800	-12434.718	-179.443	0.001	0.089	114.37
	344000	-12411.234	-183.716	0.001	0.085	114.44
	344200	-12381.879	-187.988	0.001	0.082	114.50
	344400	-12352.524	-190.430	0.001	0.078	114.57
	344600	-12334.911	-193.481	0.001	0.074	114.64
	344800	-12293.815	-196.533	-0.001	0.071	114.70
	345000	-12264.460	-198.364	-0.001	0.069	114.77
	345200	-12235.105	-200.806	0.001	0.066	114.84
	345400	-12199.879	-204.163	0.004	0.063	114.90
	345600	-12170.524	-206.909	0.001	0.060	114.97
	345800	-12129.427	-208.740	0.000	0.058	115.04
	346000	-12100.073	-210.571	0.001	0.056	115.10
	346200	-12070.718	-211.792	0.001	0.053	115.17
	346400	-12035.492	-213.623	0.002	0.051	115.24
	346600	-12006.137	-215.454	-0.001	0.047	115.30
	346800	-11982.653	-217.896	0.000	0.044	115.37
	347000	-11935.685	-220.032	0.002	0.042	115.44
	347200	-11912.202	-222.168	0.004	0.039	115.50
	347400	-11882.847	-224.609	0.002	0.037	115.57
	347600	-11847.621	-226.440	0.001	0.032	115.64
	347800	-11824.137	-228.271	0.001	0.029	115.70
	348000	-11788.911	-230.103	0.001	0.025	115.77
	348200	-11765.427	-232.544	0.001	0.022	115.84
	348400	-11730.201	-233.765	0.001	0.019	115.90
	348600	-11700.847	-235.291	-0.002	0.015	115.97
	348800	-11671.492	-237.732	0.000	0.012	116.04
	349000	-11636.266	-239.868	0.003	0.009	116.10
	349200	-11601.040	-242.310	0.002	0.007	116.17
	349400	-11577.556	-244.751	-0.000	0.005	116.24
	349600	-11571.685	-246.887	0.001	0.002	116.30
	349800	-11559.943	-249.939	0.001	-0.001	116.37
	350000	-11536.459	-252.380	0.001	-0.003	116.44
	350200	-11507.104	-254.211	0.001	-0.005	116.50
	350400	-11495.363	-255.737	-0.001	-0.007	116.57
	350600	-11483.621	-257.874	-0.000	-0.009	116.64
	350800	-11454.266	-259.399	0.002	-0.013	116.70
	351000	-11436.653	-260.620	0.003	-0.014	116.77
	351200	-11419.040	-262.451	0.001	-0.016	116.84
	351400	-11401.427	-263.977	0.000	-0.018	116.90
	351600	-11366.201	-266.113	0.001	-0.021	116.97
	351800	-11342.717	-267.639	0.001	-0.023	117.04
	352000	-11325.104	-269.165	0.001	-0.027	117.10
	352200	-11301.620	-271.912	-0.001	-0.030	117.17
	352400	-11272.266	-273.743	0.000	-0.031	117.24
	352600	-11242.911	-275.574	0.002	-0.033	117.30
	352800	-11231.169	-276.184	0.003	-0.033	117.37
	353000	-11219.427	-277.405	0.002	-0.034	117.44
	353200	-11195.943	-278.320	0.001	-0.036	117.50
	353400	-11190.072	-278.931	0.000	-0.038	117.57
	353600	-11172.459	-281.067	0.001	-0.041	117.64
	353800	-11154.846	-283.508	0.001	-0.045	117.70
	354000	-11143.104	-285.034	-0.001	-0.047	117.77
	354200	-11125.491	-287.476	-0.002	-0.049	117.84
	354400	-11119.620	-288.086	0.000	-0.051	117.90
	354600	-11096.136	-289.917	0.004	-0.052	117.97
	354800	-11084.395	-291.138	0.001	-0.053	118.04
	355000	-11066.782	-291.443	-0.001	-0.056	118.10
	355200	-11037.427	-292.358	0.000	-0.057	118.17
	355400	-11031.556	-293.274	0.001	-0.057	118.24
	355600	-11013.943	-293.274	0.000	-0.059	118.30
	355800	-10990.459	-294.495	0.000	-0.061	118.37
	356000	-10972.846	-296.021	-0.001	-0.062	118.44
	356200	-10943.491	-296.936	0.000	-0.063	118.50
	356400	-10931.749	-297.241	0.004	-0.064	118.57
	356600	-10914.136	-297.546	0.002	-0.065	118.64
	356800	-10896.523	-298.767	0.001	-0.066	118.70
	357000	-10873.040	-298.462	0.001	-0.067	118.77
	357200	-10855.427	-298.462	0.000	-0.068	118.84
	357400	-10826.072	-298.767	0.001	-0.069	118.90
	357600	-10925.878	-299.683	0.001	-0.069	118.97
	357800	-10990.459	-301.208	-0.002	-0.070	119.06
	358000	-11072.653	-303.040	-0.001	-0.069	119.10
	358200	-11119.620	-304.565	0.002	-0.070	119.17
	358400	-11131.362	-305.786	0.002	-0.070	119.24
	358600	-11143.104	-306.091	0.000	-0.070	119.30
	358800	-11148.975	-306.396	-0.001	-0.070	119.37
	359000	-11160.717	-306.396	0.000	-0.071	119.44
	359200	-11178.330	-307.617	0.001	-0.072	119.50
	359400	-11190.072	-307.617	0.001	-0.072	119.57
	359600	-11201.814	-307.312	-0.001	-0.072	119.64
	359800	-11207.685	-307.617	-0.001	-0.073	119.70
	360000	-11207.685	-308.533	0.002	-0.074	119.77
	360200	-11213.556	-309.753	0.004	-0.074	119.84
	360400	-11207.685	-310.059	0.000	-0.073	119.90
	360600	-11201.814	-310.364	0.001	-0.072	119.97
	360800	-11190.072	-310.059	0.001	-0.071	120.04
	361000	-11190.072	-309.753	0.001	-0.070	120.10
	361200	-11178.330	-308.838	0.001	-0.070	120.17
	361400	-11172.459	-308.228	-0.002	-0.070	120.24
	361600	-11160.717	-308.228	-0.001	-0.070	120.30
	361800	-11160.717	-307.922	0.001	-0.071	120.37
	362000	-11154.846	-308.228	0.004	-0.069	120.44
	362200	-11148.975	-307.007	-0.001	-0.069	120.50
	362400	-11154.846	-306.702	0.000	-0.069	120.57
	362600	-11137.233	-306.396	0.000	-0.066	120.64
	362800	-11125.491	-304.565	0.000	-0.064	120.70
	363000	-11125.491	-302.734	0.002	-0.063	120.77
	363200	-11119.620	-301.819	-0.001	-0.063	120.84
	363400	-11107.878	-300.293	-0.002	-0.062	120.90
	363600	-11096.136	-299.683	-0.001	-0.062	121.00
	363800	-11084.395	-299.377	0.002	-0.061	121.10
	364000	-11066.782	-298.157	0.001	-0.060	121.10
	364200	-11060.911	-296.631	0.000	-0.058	121.17
	364400	-11066.782	-294.800	0.000	-0.057	121.24
	364600	-11049.169	-292.969	0.000	-0.056	121.30
	364800	-11049.169	-290.222	0.000	-0.053	121.37
	365000	-11025.685	-286.255	0.000	-0.050	121.44
	365200	-11031.556	-283.508	-0.002	-0.047	121.50
	365400	-11019.814	-279.846	-0.001	-0.044	121.57
	365600	-10984.588	-276.184	0.001	-0.042	121.64
	365800	-10984.588	-271.301	0.002	-0.038	121.70
	366000	-11013.943	-268.860	-0.002	-0.035	121.77
	366200	-11013.943	-264.587	-0.000	-0.031	121.84
	366400	-11031.556	-262.756	0.000	-0.030	121.90
	366600	-11037.427	-258.789	-0.001	-0.027	121.97
	366800	-11049.169	-253.601	-0.001	-0.020	122.04
	367000	-11043.298	-249.329	-0.003	-0.016	122.10
	367200	-11049.169	-245.667	-0.002	-0.011	122.17
	367400	-11037.427	-241.089	0.001	-0.008	122.24
	367600	-11043.298	-237.732	0.003	-0.004	122.30
	367800	-11049.169	-234.070	0.000	-0.002	122.37
	368000	-11037.427	-231.628	0.001	0.001	122.44
	368200	-11043.298	-227.661	0.000	0.004	122.50
	368400	-11043.298	-224.915	0.001	0.007	122.57
	368600	-11043.298	-221.863	0.001	0.010	122.64
	368800	-11049.169	-219.116	-0.001	0.013	122.70
	369000	-11043.298	-215.759	-0.002	0.017	122.77
	369200	-11066.782	-212.708	0.001	0.021	122.84
	369400	-11078.524	-210.571	0.004	0.024	122.90
	369600	-11107.878	-209.045	0.000	0.027	122.97
	369800	-11125.491	-206.909	0.001	0.030	123.04
	370000	-11148.975	-202.332	0.000	0.034	123.14
	370200	-11166.588	-200.195	0.000	0.037	123.17
	370400	-11195.943	-198.364	0.001	0.039	123.24
	370600	-11207.685	-195.618	-0.001	0.043	123.30
	370800	-11219.427	-193.176	-0.002	0.046	123.37
	371000	-11219.427	-189.514	0.000	0.049	123.44
	371200	-11248.782	-187.378	0.003	0.052	123.50
	371400	-11248.782	-185.852	0.000	0.054	123.57
	371600	-11284.008	-184.021	0.000	0.056	123.64
	371800	-11307.491	-182.190	0.000	0.058	123.70
	372000	-11319.233	-180.054	0.001	0.061	123.77
	372200	-11301.620	-177.612	0.000	0.062	123.84
	372400	-11319.233	-176.392	0.000	0.064	123.90
	372600	-11336.846	-174.866	-0.002	0.064	123.97
	372800	-11336.846	-173.645	0.000	0.066	124.04
	373000	-11360.330	-171.509	0.002	0.067	124.10
	373200	-11366.201	-169.678	0.002	0.070	124.17
	373400	-11377.943	-167.542	0.000	0.073	124.24
	373600	-11377.943	-164.185	0.000	0.075	124.30
	373800	-11389.685	-162.354	-0.001	0.078	124.37
	374000	-11401.427	-160.522	0.001	0.080	124.44
	374200	-11436.653	-157.471	-0.000	0.083	124.50
	374400	-11424.911	-155.945	-0.002	0.085	124.57
	374600	-11436.653	-154.419	-0.002	0.087	124.64
	374800	-11436.653	-151.978	0.002	0.089	124.70
	375000	-11430.782	-148.315	0.002	0.091	124.77
	375200	-11436.653	-145.874	0.001	0.093	124.84
	375400	-11442.524	-141.907	0.000	0.097	124.90
	375600	-11471.879	-139.465	0.001	0.099	124.97
	375800	-11477.750	-137.329	0.000	0.103	125.04
	376000	-11477.750	-134.888	0.001	0.104	125.10
	376200	-11471.879	-132.141	-0.002	0.107	125.17
	376400	-11471.879	-130.920	-0.002	0.109	125.24
	376600	-11466.008	-128.479	0.000	0.111	125.30
	376800	-11483.621	-126.343	0.003	0.113	125.37
	377000	-11483.621	-123.291	-0.001	0.116	125.44
	377200	-11477.750	-119.934	0.000	0.120	125.50
	377400	-11466.008	-115.051	0.001	0.122	125.57
	377600	-11466.008	-112.610	0.000	0.125	125.64
	377800	-11466.008	-109.253	0.001	0.128	125.70
	378000	-11483.621	-105.286	-0.002	0.133	125.77
	378200	-11501.234	-99.792	-0.001	0.138	125.84
	378400	-11565.814	-96.130	0.000	0.142	125.90
	378600	-11624.524	-93.689	0.003	0.144	125.97
	378800	-11683.234	-92.163	0.000	0.148	126.04
	379000	-11741.943	-90.637	0.000	0.151	126.10
	379200	-11788.911	-88.196	0.000	0.153	126.17
	379400	-11818.266	-86.975	0.000	0.156	126.24
	379600	-11835.879	-84.534	0.000	0.160	126.30
	379800	-11865.234	-82.092	0.000	0.162	126.37
	380000	-11882.847	-77.209	-0.002	0.167	126.44
	380200	-11912.202	-72.632	-0.001	0.171	126.50
	380400	-11923.943	-68.665	0.002	0.176	126.57
	380600	-11947.427	-64.087	0.001	0.182	126.64
	380800	-11947.427	-59.509	0.000	0.187	126.70
	381000	-11965.040	-54.626	0.000	0.192	126.77
	381200	-11982.653	-48.828	0.001	0.196	126.84
	381400	-11988.524	-45.471	0.000	0.201	126.90
	381600	-12006.137	-40.894	0.001	0.205	126.97
	381800	-12012.008	-35.706	-0.002	0.210	127.04
	382000	-12012.008	-31.738	-0.001	0.215	127.10
	382200	-12012.008	-27.161	0.002	0.219	127.17
	382400	-12035.492	-21.973	0.002	0.223	127.24
	382600	-12058.976	-18.005	0.001	0.228	127.30
	382800	-12058.976	-14.648	0.000	0.232	127.37
	383000	-12058.976	-10.376	0.001	0.236	127.44
	383200	-12064.847	-5.188	0.000	0.240	127.54
	383400	-12064.847	-1.526	0.001	0.244	127.57
	383600	-12094.202	3.052	-0.001	0.248	127.64
	383800	-12088.331	7.629	-0.002	0.252	127.70
	384000	-12100.073	11.597	0.000	0.255	127.77
	384200	-12094.202	14.038	0.003	0.257	127.84
	384400	-12094.202	16.785	0.001	0.261	127.90
	384600	-12117.686	20.447	0.000	0.265	127.97
	384800	-12111.815	24.719	0.001	0.268	128.04
	385000	-12111.815	27.466	0.001	0.273	128.10
	385200	-12105.944	29.907	0.001	0.274	128.17
	385400	-12105.944	32.654	-0.000	0.276	128.24
	385600	-12129.427	35.706	-0.002	0.278	128.30
	385800	-12123.557	39.978	0.001	0.282	128.37
	386000	-12123.557	42.419	0.003	0.285	128.44
	386200	-12105.944	45.471	0.001	0.287	128.50
	386400	-12111.815	46.997	0.001	0.289	128.57
	386600	-12111.815	49.133	0.000	0.291	128.64
	386800	-12117.686	51.270	0.001	0.292	128.70
	387000	-12100.073	53.101	-0.000	0.295	128.77
	387200	-12094.202	56.458	0.001	0.297	128.84
	387400	-12111.815	59.509	-0.002	0.298	128.90
	387600	-12105.944	61.951	-0.001	0.299	128.97
	387800	-12100.073	63.171	0.002	0.300	129.04
	388000	-12088.331	63.782	0.001	0.302	129.10
	388200	-12105.944	65.308	0.000	0.302	129.17
	388400	-12105.944	66.528	0.001	0.302	129.24
	388600	-12094.202	66.833	0.000	0.301	129.30
	388800	-12088.331	66.528	0.001	0.301	129.37
	389000	-12082.460	66.223	0.001	0.301	129.44
	389200	-12100.073	66.223	-0.002	0.301	129.50
	389400	-12076.589	65.613	0.000	0.302	129.57
	389600	-12076.589	66.528	0.002	0.303	129.64
	389800	-12070.718	65.918	0.003	0.304	129.70
	390000	-12070.718	65.918	0.001	0.303	129.77
	390200	-12058.976	66.223	0.000	0.304	129.84
	390400	-12047.234	66.833	0.002	0.302	129.90
	390600	-12047.234	67.139	0.000	0.302	129.97
	390800	-12035.492	67.749	0.001	0.301	130.04
	391000	-12029.621	68.359	-0.001	0.301	130.10
	391200	-12006.137	68.359	-0.001	0.300	130.17
	391400	-12000.266	67.749	0.001	0.299	130.24
	391600	-11994.395	67.139	0.004	0.298	130.30
	391800	-12012.008	66.833	0.001	0.299	130.37
	392000	-11965.040	65.613	0.001	0.299	130.44
	392200	-11959.169	64.697	0.001	0.299	130.50
	392400	-11953.298	63.171	0.001	0.299	130.57
	392600	-11935.685	62.256	0.002	0.298	130.64
	392800	-11918.073	61.340	-0.001	0.297	130.70
	393000	-11894.589	58.594	-0.002	0.294	130.77
	393200	-11888.718	54.626	0.001	0.290	130.84
	393400	-11882.847	50.049	0.004	0.286	130.90
	393600	-11847.621	46.082	0.001	0.280	130.97
	393800	-11824.137	42.419	0.001	0.275	131.04
	394000	-11830.008	38.452	0.001	0.272	131.10
	394200	-11812.395	33.875	0.002	0.268	131.17
	394400	-11777.169	29.602	0.001	0.265	131.24
	394600	-11753.685	26.245	0.000	0.262	131.30
	394800	-11753.685	22.583	-0.000	0.258	131.37
	395000	-11730.201	19.226	0.000	0.255	131.44
	395200	-11700.847	16.479	0.002	0.251	131.50
	395400	-11689.105	13.123	0.002	0.246	131.57
	395600	-11689.105	10.071	0.001	0.243	131.64
	395800	-11683.234	6.104	0.001	0.238	131.70
	396000	-11683.234	2.441	0.001	0.234	131.77
	396200	-11700.847	-2.136	0.001	0.232	131.84
	396400	-11683.234	-6.714	0.001	0.228	131.96
	396600	-11683.234	-10.986	-0.001	0.224	131.97
	396800	-11659.750	-15.564	0.000	0.219	132.04
	397000	-11653.879	-20.142	0.003	0.215	132.10
	397200	-11648.008	-24.414	0.004	0.210	132.17
	397400	-11601.040	-29.297	0.001	0.205	132.24
	397600	-11595.169	-33.264	0.002	0.201	132.30
	397800	-11577.556	-36.926	0.002	0.199	132.37
	398000	-11548.201	-40.894	0.002	0.194	132.44
	398200	-11507.104	-44.861	0.002	0.190	132.50
	398400	-11530.588	-49.133	-0.001	0.185	132.57
	398600	-11512.975	-54.321	0.000	0.179	132.64
	398800	-11466.008	-59.509	0.002	0.174	132.70
	399000	-11448.395	-65.002	0.005	0.170	132.77
	399200	-11436.653	-70.190	0.002	0.164	132.84
	399400	-11395.556	-75.073	0.001	0.158	132.90
	399600	-11377.943	-81.787	0.001	0.151	132.97
	399800	-11366.201	-87.280	0.002	0.144	133.04
	400000	-11348.588	-93.689	0.002	0.137	133.10
	400200	-11319.233	-98.877	0.000	0.131	133.17
	400400	-11260.524	-103.760	-0.000	0.125	133.24
	400600	-11272.266	-109.558	0.003	0.119	133.30
	400800	-11242.911	-116.272	0.005	0.113	133.37
	401000	-11201.814	-122.986	0.001	0.105	133.44
	401200	-11372.072	-131.226	0.001	0.097	133.50
	401400	-11559.943	-139.160	0.002	0.091	133.57
	401600	-11671.492	-145.874	0.001	0.087	133.64
	401800	-11765.427	-153.503	0.002	0.081	133.70
	402000	-11865.234	-161.743	0.001	0.076	133.77
	402200	-11941.556	-170.593	-0.001	0.069	133.84
	402400	-11982.653	-181.885	0.001	0.060	133.90
	402600	-12035.492	-190.430	0.004	0.053	133.99
	402800	-12076.589	-198.059	0.002	0.049	134.04
	403000	-12094.202	-204.773	0.001	0.044	134.10
	403200	-12152.911	-210.571	0.001	0.039	134.17
	403400	-12182.266	-216.980	0.001	0.034	134.24
	403600	-12188.137	-222.778	0.001	0.027	134.30
	403800	-12205.750	-228.882	0.001	0.022	134.37
	404000	-12252.718	-235.901	-0.001	0.017	134.44
	404200	-12258.589	-242.615	-0.000	0.012	134.50
	404400	-12276.202	-248.413	0.002	0.006	134.57
	404600	-12305.557	-253.296	0.002	0.000	134.64
	404800	-12305.557	-259.399	0.001	-0.006	134.70
	405000	-12317.299	-264.893	0.002	-0.010	134.77
	405200	-12352.524	-270.386	0.002	-0.016	134.84
	405400	-12364.266	-276.794	0.000	-0.020	134.90
	405600	-12358.395	-282.288	0.002	-0.025	134.97
	405800	-12376.008	-286.255	-0.002	-0.029	135.04
	406000	-12393.621	-292.053	0.000	-0.033	135.10
	406200	-12393.621	-297.852	0.001	-0.039	135.17
	406400	-12399.492	-303.955	0.004	-0.044	135.24
	406600	-12428.847	-308.533	0.001	-0.048	135.30
	406800	-12411.234	-310.364	0.001	-0.049	135.37
	407000	-12440.589	-314.331	0.001	-0.052	135.44
	407200	-12440.589	-319.214	0.000	-0.058	135.50
	407400	-12434.718	-322.876	0.002	-0.062	135.57
	407600	-12452.331	-325.012	0.000	-0.063	135.64
	407800	-12475.815	-326.538	-0.001	-0.066	135.70
	408000	-12458.202	-329.285	0.001	-0.069	135.77
	408200	-12481.686	-332.642	0.004	-0.072	135.84
	408400	-12481.686	-334.778	0.001	-0.074	135.90
	408600	-12452.331	-337.524	0.000	-0.077	135.97
	408800	-12452.331	-339.050	0.000	-0.078	136.04
	409000	-12469.944	-339.661	0.001	-0.079	136.10
	409200	-12434.718	-340.576	0.000	-0.081	136.17
	409400	-12446.460	-339.966	-0.001	-0.082	136.24
	409600	-12446.460	-341.492	-0.001	-0.082	136.30
	409800	-12428.847	-342.102	-0.001	-0.082	136.37
	410000	-12411.234	-342.102	0.002	-0.083	136.44
	410200	-12422.976	-342.407	0.001	-0.083	136.50
	410400	-12399.492	-341.797	0.001	-0.083	136.62
	410600	-12399.492	-342.407	0.001	-0.083	136.64
	410800	-12387.750	-343.018	0.000	-0.083	136.70
	411000	-12352.524	-342.712	-0.000	-0.082	136.77
	411200	-12364.266	-342.102	-0.000	-0.082	136.84
	411400	-12352.524	-341.797	-0.001	-0.081	136.90
	411600	-12317.299	-340.576	0.000	-0.081	137.02
	411800	-12317.299	-339.355	0.002	-0.081	137.04
	412000	-12293.815	-338.745	0.001	-0.080	137.10
	412200	-12293.815	-337.219	0.001	-0.080	137.17
	412400	-12293.815	-336.304	0.000	-0.079	137.24
	412600	-12287.944	-335.388	0.001	-0.077	137.30
	412800	-12364.266	-335.083	0.000	-0.076	137.37
	413000	-12417.105	-334.473	0.001	-0.076	137.44
	413200	-12434.718	-334.778	-0.002	-0.075	137.50
	413400	-12493.428	-334.778	-0.001	-0.074	137.57
	413600	-12493.428	-334.473	0.002	-0.073	137.64
	413800	-12499.299	-333.557	0.003	-0.070	137.70
	414000	-12522.783	-332.031	0.000	-0.068	137.77
	414200	-12528.654	-330.811	0.000	-0.066	137.84
	414400	-12540.396	-329.895	-0.001	-0.063	137.90
	414600	-12546.266	-324.707	0.001	-0.060	137.97
	414800	-12540.396	-319.519	0.001	-0.055	138.04
	415000	-12575.621	-315.857	-0.001	-0.051	138.16
	415200	-12569.750	-313.110	-0.002	-0.049	138.17
	415400	-12563.879	-310.059	0.000	-0.044	138.24
	415600	-12587.363	-307.922	0.004	-0.039	138.30
	415800	-12581.492	-303.650	0.000	-0.036	138.37
	416000	-12581.492	-301.208	0.001	-0.034	138.44
	416200	-12599.105	-296.326	0.000	-0.031	138.50
	416400	-12587.363	-295.715	0.001	-0.030	138.57
	416600	-12599.105	-290.222	0.001	-0.025	138.64
	416800	-12599.105	-287.170	-0.001	-0.022	138.70
	417000	-12599.105	-283.508	-0.001	-0.019	138.77
	417200	-12610.847	-280.762	0.001	-0.017	138.84
	417400	-12593.234	-278.320	0.004	-0.014	138.90
	417600	-12604.976	-276.184	0.001	-0.013	138.97
	417800	-12593.234	-273.743	0.000	-0.009	139.04
	418000	-12599.105	-272.522	-0.001	-0.006	139.10
	418200	-12628.460	-269.165	0.000	-0.002	139.17
	418400	-12616.718	-266.113	0.001	0.001	139.24
	418600	-12704.783	-264.587	-0.000	0.003	139.30
	418800	-12769.363	-263.062	-0.002	0.005	139.37
	419000	-12828.073	-261.841	0.000	0.007	139.44
	419200	-12880.912	-260.620	0.002	0.009	139.50
	419400	-12910.267	-259.705	0.001	0.012	139.57
	419600	-12957.234	-258.789	0.000	0.013	139.64
	419800	-12974.847	-256.653	-0.001	0.016	139.70
	420000	-13021.815	-254.822	0.000	0.018	139.77
	420200	-13033.557	-253.296	0.001	0.020	139.84
	420400	-13039.428	-251.770	0.001	0.022	139.90
	420600	-13068.783	-250.244	-0.001	0.023	139.97
	420800	-13086.396	-249.329	-0.001	0.026	140.04
	421000	-13104.009	-245.667	0.002	0.029	140.10
	421200	-13115.751	-243.530	0.002	0.032	140.17
	421400	-13139.235	-240.479	0.000	0.035	140.24
	421600	-13162.719	-237.122	0.001	0.038	140.30
	421800	-13162.719	-234.680	0.000	0.040	140.37
	422000	-13186.202	-232.544	0.001	0.042	140.44
	422200	-13197.944	-230.103	0.001	0.045	140.50
	422400	-13203.815	-228.577	-0.002	0.046	140.57
	422600	-13209.686	-226.135	-0.001	0.050	140.64
	422800	-13221.428	-224.609	0.001	0.052	140.70
	423000	-13256.654	-222.473	0.003	0.055	140.77
	423200	-13268.396	-220.947	0.000	0.057	140.84
	423400	-13291.880	-219.116	0.000	0.060	140.90
	423600	-13291.880	-217.590	0.001	0.063	140.97
	423800	-13327.106	-216.064	0.001	0.066	141.04
	424000	-13321.235	-213.318	0.002	0.068	141.10
	424200	-13327.106	-209.351	-0.000	0.072	141.17
	424400	-13374.073	-205.383	-0.002	0.076	141.24
	424600	-13391.686	-203.247	0.001	0.080	141.30
	424800	-13438.654	-200.195	0.003	0.082	141.37
	425000	-13444.525	-198.059	0.001	0.085	141.44
	425200	-13473.880	-197.144	0.000	0.089	141.50
	425400	-13485.622	-193.481	0.000	0.092	141.57
	425600	-13503.235	-191.650	-0.000	0.094	141.64
	425800	-13532.590	-188.599	0.000	0.096	141.70
	426000	-13532.590	-186.157	0.000	0.099	141.77
	426200	-13556.074	-183.105	-0.001	0.103	141.84
	426400	-13544.332	-179.443	0.000	0.106	141.90
	426600	-13579.557	-177.002	0.002	0.110	141.97
	426800	-13573.687	-173.645	0.001	0.113	142.04
	427000	-13591.299	-170.288	-0.000	0.117	142.10
	427200	-13597.170	-165.405	0.000	0.121	142.17
	427400	-13614.783	-160.217	0.000	0.124	142.24
	427600	-13603.041	-155.640	0.000	0.129	142.30
	427800	-13626.525	-152.283	0.002	0.133	142.37
	428000	-13608.912	-148.621	-0.001	0.137	142.44
	428200	-13632.396	-145.874	-0.001	0.140	142.50
	428400	-13638.267	-142.822	0.003	0.144	142.57
	428600	-13632.396	-139.771	0.002	0.147	142.64
	428800	-13650.009	-136.108	0.001	0.150	142.70
	429000	-13644.138	-132.141	-0.000	0.152	142.82
	429200	-13661.751	-129.395	0.000	0.154	142.84
	429400	-13655.880	-125.732	0.000	0.157	142.90
	429600	-13673.493	-119.934	0.000	0.161	142.97
	429800	-13655.880	-115.967	-0.002	0.166	143.04
	430000	-13679.364	-112.610	-0.001	0.169	143.10
	430200	-13661.751	-108.643	0.001	0.174	143.17
	430400	-13679.364	-104.065	0.003	0.177	143.24
	430600	-13667.622	-101.318	0.000	0.181	143.30
	430800	-13685.235	-97.351	0.001	0.183	143.37
	431000	-13673.493	-94.604	0.000	0.185	143.44
	431200	-13702.848	-92.163	0.000	0.188	143.50
	431400	-13685.235	-88.196	0.002	0.191	143.57
	431600	-13685.235	-83.618	-0.001	0.195	143.64
	431800	-13679.364	-80.872	-0.002	0.198	143.70
	432000	-13702.848	-76.599	0.001	0.201	143.77
	432200	-13685.235	-72.937	0.004	0.205	143.84
	432400	-13708.719	-69.885	0.001	0.208	143.90
	432600	-13702.848	-66.223	0.001	0.211	143.97
	432800	-13702.848	-63.782	0.001	0.214	144.04
	433000	-13691.106	-60.120	0.001	0.218	144.10
	433200	-13696.977	-56.152	0.001	0.222	144.18
	433400	-13702.848	-52.795	-0.001	0.225	144.24
	433600	-13691.106	-49.438	-0.002	0.228	144.30
	433800	-13702.848	-45.776	-0.001	0.230	144.37
	434000	-13691.106	-42.725	0.003	0.235	144.44
	434200	-13702.848	-39.368	0.000	0.237	144.50
	434400	-13673.493	-36.011	0.000	0.240	144.57
	434600	-13691.106	-33.264	0.000	0.243	144.64
	434800	-13679.364	-29.907	0.000	0.246	144.70
	435000	-13691.106	-27.161	0.001	0.248	144.77
	435200	-13679.364	-24.719	0.000	0.251	144.84
	435400	-13691.106	-21.362	-0.002	0.253	144.90
	435600	-13673.493	-17.700	0.000	0.255	144.97
	435800	-13679.364	-14.038	0.002	0.258	145.04
	436000	-13667.622	-10.986	0.002	0.261	145.10
	436200	-13685.235	-9.155	0.001	0.265	145.17
	436400	-13667.622	-7.935	0.000	0.266	145.24
	436600	-13679.364	-4.272	0.001	0.267	145.30
	436800	-13661.751	-1.526	0.001	0.270	145.37
	437000	-13679.364	1.831	0.001	0.273	145.44
	437200	-13667.622	3.967	-0.002	0.275	145.50
	437400	-13667.622	6.104	-0.001	0.277	145.57
	437600	-13655.880	7.324	0.001	0.278	145.64
	437800	-13667.622	9.460	0.003	0.280	145.70
	438000	-13667.622	10.376	0.001	0.283	145.77
	438200	-13667.622	14.343	0.001	0.285	145.84
	438400	-13655.880	16.479	0.001	0.286	145.90
	438600	-13673.493	18.921	0.001	0.288	145.97
	438800	-13673.493	20.447	0.002	0.289	146.04
	439000	-13667.622	21.973	-0.001	0.291	146.10
	439200	-13673.493	22.888	-0.002	0.292	146.17
	439400	-13661.751	22.888	0.002	0.293	146.24
	439600	-13667.622	24.414	0.004	0.293	146.30
	439800	-13655.880	24.109	0.001	0.295	146.37
	440000	-13673.493	24.109	-0.000	0.295	146.44
	440200	-13661.751	24.414	0.001	0.295	146.50
	440400	-13667.622	24.719	0.001	0.294	146.57
	440600	-13650.009	24.414	0.002	0.294	146.64
	440800	-13679.364	24.719	0.000	0.293	146.70
	441000	-13667.622	23.804	-0.001	0.293	146.77
	441200	-13691.106	24.414	0.002	0.293	146.84
	441400	-13679.364	23.804	0.004	0.294	146.90
	441600	-13673.493	23.804	0.002	0.293	146.97
	441800	-13673.493	23.499	0.002	0.293	147.04
	442000	-13679.364	22.888	0.002	0.291	147.10
	442200	-13691.106	21.057	0.002	0.290	147.17
	442400	-13685.235	19.226	0.002	0.289	147.24
	442600	-13667.622	18.005	0.002	0.287	147.30
	442800	-13673.493	16.785	0.000	0.285	147.37
	443000	-13696.977	14.343	0.002	0.283	147.44
	443200	-13691.106	9.155	0.004	0.279	147.50
	443400	-13696.977	3.052	0.003	0.273	147.57
	443600	-13691.106	-3.662	0.002	0.268	147.64
	443800	-13708.719	-10.071	0.002	0.262	147.70
	444000	-13702.848	-16.479	0.002	0.255	147.77
	444200	-13691.106	-23.804	0.002	0.249	147.84
	444400	-13702.848	-33.264	0.002	0.241	147.90
	444600	-13702.848	-41.199	0.000	0.234	147.97
	444800	-13708.719	-50.049	0.001	0.226	148.04
	445000	-13691.106	-58.594	0.004	0.218	148.10
	445200	-13714.590	-68.359	0.005	0.210	148.17
	445400	-13691.106	-76.294	0.002	0.202	148.24
	445600	-13708.719	-84.534	0.002	0.194	148.30
	445800	-13702.848	-92.468	0.002	0.185	148.40
	446000	-13696.977	-99.792	0.002	0.177	148.44
	446200	-13702.848	-106.812	0.002	0.170	148.50
	446400	-13691.106	-115.662	0.000	0.161	148.57
	446600	-13702.848	-123.901	0.000	0.154	148.64
	446800	-13691.106	-132.446	0.003	0.146	148.70
	447000	-13702.848	-140.381	0.005	0.139	148.77
	447200	-13691.106	-149.231	0.002	0.131	148.84
	447400	-13679.364	-157.166	0.002	0.123	148.90
	447600	-13696.977	-164.795	0.002	0.115	148.97
	447800	-13679.364	-173.035	0.002	0.107	149.04
	448000	-13691.106	-182.190	0.004	0.098	149.10
	448200	-13673.493	-190.735	0.001	0.089	149.17
	448400	-13679.364	-199.585	-0.001	0.081	149.24
	448600	-13667.622	-207.214	0.002	0.075	149.30
	448800	-13673.493	-214.233	0.004	0.068	149.37
	449000	-13726.332	-221.252	0.001	0.060	149.44
	449200	-13773.300	-230.713	0.001	0.052	149.50
	449400	-13843.751	-239.868	0.001	0.045	149.57
	449600	-13855.493	-247.803	0.002	0.038	149.64
	449800	-13908.332	-253.906	0.002	0.031	149.70
	450000	-13920.074	-260.925	0.001	0.026	149.77
	450200	-13949.429	-267.944	-0.001	0.019	149.84
	450400	-13972.913	-275.269	0.001	0.013	149.90
	450600	-13984.655	-281.982	0.003	0.007	149.97
	450800	-14008.138	-288.391	0.002	0.002	150.04
	451000	-14008.138	-294.495	0.002	-0.002	150.14
	451200	-14037.493	-299.683	0.002	-0.006	150.17
	451400	-14049.235	-304.565	0.002	-0.010	150.24
	451600	-14055.106	-309.143	0.002	-0.014	150.30
	451800	-14084.461	-313.721	0.002	-0.018	150.37
	452000	-14078.590	-318.298	0.000	-0.022	150.44
	452200	-14102.074	-322.876	0.000	-0.027	150.50
	452400	-14102.074	-327.454	0.003	-0.031	150.57
	452600	-14107.945	-331.421	0.004	-0.034	150.64
	452800	-14137.300	-335.083	0.002	-0.037	150.71
	453000	-14119.687	-340.576	0.001	-0.042	150.77
	453200	-14154.913	-344.238	0.002	-0.045	150.84
	453400	-14143.171	-347.290	0.002	-0.048	150.90
	453600	-14166.655	-350.342	0.002	-0.051	150.97
	453800	-14160.784	-353.699	-0.000	-0.055	151.04
	454000	-14160.784	-356.445	0.000	-0.058	151.10
	454200	-14184.268	-359.802	0.002	-0.061	151.17
	454400	-14178.397	-363.770	0.004	-0.064	151.24
	454600	-14196.010	-366.516	0.002	-0.068	151.30
	454800	-14201.880	-368.042	0.002	-0.070	151.37
	455000	-14190.139	-370.789	0.002	-0.072	151.44
	455200	-14342.784	-373.840	0.002	-0.074	151.50
	455400	-14454.332	-377.808	0.002	-0.076	151.57
	455600	-14565.881	-382.690	0.000	-0.078	151.64
	455800	-14653.945	-387.268	0.000	-0.081	151.71
	456000	-14724.397	-391.846	0.002	-0.082	151.77
	456200	-14794.849	-395.203	0.005	-0.083	151.84
	456400	-14841.816	-398.254	0.002	-0.084	151.90
	456600	-14906.397	-400.696	0.001	-0.085	151.97
	456800	-14947.494	-402.222	0.000	-0.086	152.04
	457000	-14994.462	-403.442	0.002	-0.087	152.10
	457200	-15059.042	-405.579	0.003	-0.088	152.17
	457400	-15088.397	-406.189	0.000	-0.088	152.24
	457600	-15123.623	-407.715	-0.001	-0.088	152.30
	457800	-15194.075	-408.630	0.001	-0.087	152.37
	458000	-15223.430	-410.461	0.003	-0.086	152.44
	458200	-15252.784	-411.072	0.001	-0.084	152.50
	458400	-15299.752	-411.377	0.001	-0.085	152.57
	458600	-15346.720	-412.598	0.001	-0.085	152.64
	458800	-15393.688	-414.124	0.000	-0.085	152.70
	459000	-15434.785	-415.039	0.001	-0.086	152.77
	459200	-15452.397	-416.565	0.001	-0.086	152.84
	459400	-15493.494	-417.480	-0.001	-0.085	152.90
	459600	-15522.849	-417.786	0.001	-0.085	152.97
	459800	-15558.075	-419.006	0.002	-0.085	153.04
	460000	-15605.043	-419.312	0.002	-0.085	153.10
	460200	-15622.656	-419.922	0.001	-0.083	153.17
	460400	-15669.623	-419.312	0.001	-0.082	153.24
	460600	-15693.107	-419.312	0.000	-0.081	153.30
	460800	-15704.849	-418.396	0.000	-0.081	153.37
	461000	-15745.946	-417.175	0.000	-0.078	153.44
	461200	-15781.172	-415.649	-0.002	-0.075	153.50
	461400	-15792.914	-414.124	-0.001	-0.072	153.57
	461600	-15839.882	-409.851	0.002	-0.069	153.64
	461800	-15857.495	-405.884	0.004	-0.064	153.70
	462000	-15875.107	-402.527	0.000	-0.060	153.77
	462200	-15910.333	-400.391	0.000	-0.057	153.84
	462400	-15933.817	-396.423	0.000	-0.052	153.90
	462600	-15957.301	-393.066	0.001	-0.049	153.97
	462800	-15998.398	-388.489	0.001	-0.046	154.04
	463000	-16010.140	-385.132	-0.001	-0.041	154.10
	463200	-16039.495	-381.470	-0.002	-0.037	154.17
	463400	-16080.591	-377.197	0.000	-0.033	154.24
	463600	-16086.462	-372.620	0.004	-0.028	154.30
	463800	-16115.817	-368.958	0.001	-0.022	154.37
	464000	-16156.914	-364.075	-0.000	-0.017	154.44
	464200	-16168.656	-360.413	0.000	-0.012	154.50
	464400	-16192.140	-355.530	0.000	-0.006	154.57
	464600	-16209.753	-350.342	0.001	-0.001	154.64
	464800	-16274.333	-344.849	-0.001	0.005	154.70
	465000	-16338.914	-340.881	-0.002	0.012	154.77
	465200	-16415.237	-336.304	-0.000	0.017	154.90
	465400	-16456.334	-332.031	0.002	0.022	154.90
	465600	-16485.688	-327.454	0.001	0.027	154.97
	465800	-16562.011	-323.792	0.000	0.033	155.04
	466000	-16585.495	-319.214	0.001	0.041	155.10
	466200	-16620.721	-313.721	0.001	0.050	155.17
	466400	-16673.560	-306.702	0.001	0.057	155.24
	466600	-16702.914	-301.819	0.000	0.063	155.30
	466800	-16732.269	-294.800	-0.002	0.070	155.37
	467000	-16779.237	-286.865	-0.001	0.076	155.44
	467200	-16785.108	-280.457	0.002	0.083	155.52
	467400	-16820.334	-274.048	0.001	0.089	155.57
	467600	-16867.302	-267.334	0.000	0.096	155.64
	467800	-16884.915	-260.315	0.000	0.102	155.70
	468000	-16908.398	-254.211	0.001	0.107	155.77
	468200	-16955.366	-246.887	0.001	0.114	155.84
	468400	-16972.979	-239.563	0.000	0.122	155.90
	468600	-16984.721	-234.680	-0.002	0.128	155.97
	468800	-17031.689	-230.408	-0.001	0.133	156.04
	469000	-17061.044	-226.440	0.002	0.137	156.10
	469200	-17084.528	-220.947	0.002	0.143	156.17
	469400	-17108.011	-214.539	-0.001	0.149	156.24
	469600	-17149.108	-208.740	0.000	0.154	156.30
	469800	-17154.979	-202.026	0.001	0.161	156.37
	470000	-17184.334	-195.618	-0.001	0.168	156.44
	470200	-17225.431	-189.209	0.000	0.174	156.50
	470400	-17237.173	-183.411	-0.001	0.179	156.57
	470600	-17266.528	-178.223	-0.002	0.186	156.64
	470800	-17301.754	-172.424	0.001	0.192	156.71
	471000	-17319.366	-166.626	0.003	0.199	156.77
	471200	-17331.108	-161.438	0.000	0.206	156.84
	471400	-17366.334	-155.029	0.000	0.213	156.90
	471600	-17401.560	-149.231	-0.001	0.218	156.97
	471800	-17419.173	-143.127	0.000	0.224	157.04
	472000	-17442.657	-137.024	0.002	0.230	157.10
	472200	-17477.883	-131.226	-0.001	0.236	157.17
	472400	-17501.367	-126.953	-0.002	0.240	157.24
	472600	-17507.238	-121.765	0.001	0.245	157.36
	472800	-17542.463	-117.798	0.004	0.249	157.37
	473000	-17565.947	-113.220	0.001	0.254	157.44
	473200	-17595.302	-109.558	0.001	0.259	157.50
	473400	-17601.173	-108.643	0.001	0.261	157.57
	473600	-17636.399	-104.675	0.001	0.266	157.64
	473800	-17659.883	-99.487	0.001	0.270	157.70
	474000	-17671.625	-96.130	0.000	0.274	157.77
	474200	-17683.367	-94.299	-0.001	0.276	157.84
	474400	-17718.593	-91.858	-0.001	0.277	157.90
	474600	-17742.076	-89.111	0.002	0.282	157.97
	474800	-17753.818	-86.975	0.002	0.285	158.08
	475000	-17777.302	-84.839	0.001	0.287	158.10
	475200	-17812.528	-83.618	0.001	0.289	158.17
	475400	-17812.528	-83.618	0.001	0.290	158.24
	475600	-17836.012	-82.397	0.001	0.290	158.30
	475800	-17865.367	-82.092	0.000	0.290	158.37
	476000	-17882.980	-81.177	-0.002	0.290	158.44
	476200	-17888.851	-81.177	0.001	0.291	158.50
	476400	-17912.335	-80.566	0.002	0.290	158.57
	476600	-17941.689	-80.566	0.002	0.288	158.64
	476800	-17929.948	-80.566	0.001	0.289	158.70
	477000	-17953.431	-80.261	0.001	0.288	158.77
	477200	-17959.302	-80.872	0.001	0.288	158.84
	477400	-17971.044	-81.787	0.001	0.288	158.90
	477600	-17976.915	-82.092	0.002	0.287	158.97
	477800	-17988.657	-83.313	-0.001	0.287	159.04
	478000	-17994.528	-85.144	-0.001	0.287	159.10
	478200	-18000.399	-86.975	0.002	0.286	159.17
	478400	-18018.012	-88.806	0.004	0.284	159.29
	478600	-18018.012	-91.553	0.001	0.282	159.30
	478800	-18047.367	-94.604	0.001	0.280	159.37
	479000	-18041.496	-102.539	0.001	0.274	159.44
	479200	-18035.625	-111.694	0.000	0.266	159.50
	479400	-18035.625	-118.408	0.002	0.260	159.57
	479600	-18064.980	-126.038	-0.000	0.252	159.64
	479800	-18070.851	-133.667	-0.002	0.246	159.70
	480000	-18041.496	-139.771	0.002	0.241	159.77
	480200	-18047.367	-144.958	0.004	0.238	159.84
	480400	-18047.367	-150.757	0.001	0.232	159.90
	480600	-18053.238	-156.555	0.001	0.226	159.97
	480800	-18023.883	-162.659	0.001	0.219	160.04
	481000	-18023.883	-170.593	0.000	0.211	160.10
	481200	-18023.883	-178.833	0.002	0.201	160.17
	481400	-18006.270	-187.378	0.000	0.193	160.24
	481600	-17988.657	-195.312	-0.002	0.185	160.30
	481800	-17959.302	-203.552	0.001	0.179	160.37
	482000	-17953.431	-209.351	0.003	0.172	160.44
	482200	-17924.077	-216.370	0.001	0.167	160.50
	482400	-17894.722	-224.915	0.002	0.158	160.57
	482600	-17871.238	-234.070	0.000	0.149	160.64
	482800	-17841.883	-243.530	0.001	0.139	160.71
	483000	-17830.141	-253.296	0.001	0.128	160.77
	483200	-17783.173	-264.893	0.000	0.117	160.84
	483400	-17747.947	-277.100	-0.001	0.105	160.90
	483600	-17718.593	-288.696	-0.001	0.093	160.97
	483800	-17695.109	-298.157	0.002	0.081	161.04
	484000	-17718.593	-305.786	0.003	0.073	161.10
	484200	-17730.334	-316.467	0.001	0.064	161.18
	484400	-17742.076	-324.402	0.001	0.056	161.24
	484600	-17765.560	-333.252	0.002	0.049	161.30
	484800	-17777.302	-343.018	0.001	0.040	161.37
	485000	-17765.560	-351.257	0.001	0.032	161.44
	485200	-17824.270	-360.107	-0.001	0.024	161.50
	485400	-17900.593	-369.263	0.000	0.016	161.57
	485600	-17953.431	-379.028	0.002	0.009	161.64
	485800	-17988.657	-387.878	0.004	0.002	161.71
	486000	-18023.883	-396.423	0.001	-0.006	161.77
	486200	-18070.851	-405.273	0.002	-0.013	161.84
	486400	-18117.819	-414.429	0.001	-0.020	161.90
	486600	-18117.819	-422.058	0.001	-0.027	161.97
	486800	-18117.819	-429.077	0.002	-0.034	162.04
	487000	-18135.432	-435.486	-0.001	-0.041	162.10
	487200	-18164.786	-443.420	-0.001	-0.047	162.22
	487400	-18182.399	-450.439	0.002	-0.054	162.24
	487600	-18164.786	-457.153	0.004	-0.059	162.30
	487800	-18164.786	-461.731	0.002	-0.063	162.37
	488000	-18164.786	-466.614	0.001	-0.068	162.44
	488200	-18176.528	-469.360	0.001	-0.071	162.50
	488400	-18164.786	-471.497	0.002	-0.074	162.57
	488600	-18164.786	-475.159	0.001	-0.077	162.64
	488800	-18141.302	-477.600	0.000	-0.080	162.71
	489000	-18141.302	-480.652	-0.001	-0.084	162.77
	489200	-18158.915	-483.093	0.001	-0.085	162.84
	489400	-18147.173	-485.229	0.004	-0.087	162.90
	489600	-18123.690	-485.229	0.001	-0.088	162.98
	489800	-18123.690	-485.229	0.000	-0.089	163.04
	490000	-18106.077	-484.924	0.002	-0.090	163.10
	490200	-18094.335	-485.229	0.001	-0.091	163.17
	490400	-18088.464	-485.229	0.002	-0.091	163.24
	490600	-18076.722	-486.145	-0.001	-0.092	163.30
	490800	-18047.367	-486.145	-0.001	-0.091	163.37
	491000	-18047.367	-485.229	-0.001	-0.090	163.44
	491200	-18035.625	-483.704	0.003	-0.090	163.50
	491400	-18023.883	-483.093	0.002	-0.089	163.57
	491600	-18006.270	-481.567	0.000	-0.088	163.64
	491800	-17976.915	-480.347	0.001	-0.087	163.71
	492000	-17971.044	-477.905	0.000	-0.086	163.78
	492200	-17976.915	-475.769	0.001	-0.086	163.84
	492400	-17953.431	-473.328	0.001	-0.085	163.90
	492600	-17941.689	-471.802	-0.002	-0.082	164.00
	492800	-17918.206	-468.445	-0.001	-0.080	164.04
	493000	-17894.722	-461.731	0.001	-0.072	164.10
	493200	-17882.980	-451.965	0.003	-0.064	164.17
	493400	-17882.980	-445.862	-0.001	-0.058	164.24
	493600	-17871.238	-438.538	0.000	-0.050	164.30
	493800	-17841.883	-429.688	-0.001	-0.042	164.37
	494000	-17836.012	-425.415	0.000	-0.037	164.44
	494200	-17824.270	-420.532	0.001	-0.034	164.50
	494400	-17812.528	-415.344	-0.002	-0.028	164.62
	494600	-17806.657	-409.241	-0.002	-0.022	164.64
	494800	-17794.915	-402.527	0.001	-0.016	164.70
	495000	-17777.302	-395.813	0.004	-0.009	164.78
	495200	-17765.560	-390.015	0.000	-0.004	164.84
	495400	-17747.947	-383.911	0.000	0.002	164.90
	495600	-17747.947	-376.282	-0.001	0.009	164.97
	495800	-17742.076	-369.568	0.000	0.015	165.04
	496000	-17730.334	-362.854	0.001	0.020	165.10
	496200	-17712.722	-356.750	-0.001	0.026	165.18
	496400	-17706.851	-351.562	-0.003	0.030	165.24
	496600	-17700.980	-346.375	0.000	0.035	165.30
	496800	-17695.109	-339.050	0.003	0.041	165.38
	497000	-17695.109	-332.336	0.000	0.047	165.46
	497200	-17695.109	-326.538	0.000	0.053	165.50
	497400	-17671.625	-320.129	-0.000	0.057	165.58
	497600	-17665.754	-314.026	0.000	0.064	165.64
	497800	-17671.625	-307.007	-0.001	0.071	165.70
	498000	-17665.754	-299.683	-0.001	0.078	165.77
	498200	-17677.496	-292.969	-0.002	0.086	165.84
	498400	-17659.883	-286.865	0.000	0.092	165.90
	498600	-17659.883	-280.457	0.002	0.098	165.98
	498800	-17648.141	-273.743	0.001	0.105	166.04
	499000	-17648.141	-266.724	0.000	0.112	166.10
	499200	-17654.012	-259.399	0.000	0.119	166.18
	499400	-17659.883	-253.296	0.000	0.124	166.24
	499600	-17659.883	-248.108	0.001	0.129	166.30
	499800	-17654.012	-241.699	0.000	0.134	166.38
	500000	-17654.012	-236.816	-0.001	0.139	166.44
	500200	-17648.141	-231.323	-0.001	0.146	166.50
	500400	-17648.141	-224.609	0.002	0.153	166.57
	500600	-17665.754	-217.896	0.002	0.159	166.64
	500800	-17765.560	-212.708	0.001	0.166	166.70
	501000	-17853.625	-207.520	0.000	0.172	166.77
	501200	-17924.077	-205.383	0.001	0.177	166.84
	501400	-17959.302	-203.247	0.001	0.180	166.90
	501600	-18023.883	-199.280	0.001	0.184	166.97
	501800	-18082.593	-195.312	-0.001	0.189	167.04
	502000	-18117.819	-191.040	0.000	0.194	167.10
	502200	-18182.399	-186.462	0.001	0.199	167.18
	502400	-18217.625	-182.495	0.004	0.204	167.24
	502600	-18270.464	-178.528	0.000	0.209	167.30
	502800	-18311.561	-175.171	0.001	0.213	167.38
	503000	-18335.045	-170.898	0.000	0.217	167.44
	503200	-18370.270	-167.236	0.001	0.221	167.50
	503400	-18411.367	-162.964	0.002	0.226	167.57
	503600	-18458.335	-159.302	-0.000	0.229	167.64
	503800	-18493.561	-156.250	-0.001	0.233	167.70
	504000	-18528.787	-154.114	0.002	0.237	167.77
	504200	-18558.141	-151.978	0.004	0.240	167.84
	504400	-18622.722	-149.231	0.002	0.243	167.90
	504600	-18681.432	-147.095	0.000	0.247	167.98
	504800	-18704.916	-143.127	0.001	0.250	168.04
	505000	-18751.884	-140.381	0.001	0.256	168.10
	505200	-18804.722	-138.550	0.001	0.259	168.18
	505400	-18851.690	-137.329	-0.001	0.261	168.24
	505600	-18892.787	-134.277	-0.001	0.263	168.30
	505800	-18939.755	-130.920	0.000	0.266	168.37
	506000	-18980.851	-129.089	0.003	0.269	168.44
	506200	-19016.077	-127.563	0.001	0.272	168.50
	506400	-19057.174	-127.258	0.000	0.273	168.57
	506600	-19274.400	-126.648	0.001	0.276	168.64
	506800	-19491.626	-128.479	-0.001	0.278	168.70
	507000	-19691.239	-130.615	0.001	0.280	168.77
	507200	-19873.239	-134.277	0.000	0.280	168.86
	507400	-20031.755	-136.719	-0.001	0.282	168.94
	507600	-20202.014	-139.465	-0.001	0.283	168.98
	507800	-20325.304	-141.907	0.003	0.284	169.04
	508000	-20477.949	-145.264	0.002	0.285	169.10
	508200	-20612.982	-148.010	0.002	0.286	169.17
	508400	-20753.885	-151.062	0.001	0.286	169.24
	508600	-20865.433	-155.029	0.000	0.286	169.30
	508800	-20982.853	-157.776	0.001	0.285	169.37
	509000	-21100.272	-162.048	0.001	0.284	169.44
	509200	-21205.950	-164.185	-0.001	0.287	169.50
	509400	-21294.014	-166.626	0.000	0.287	169.57
	509600	-21405.563	-169.983	0.003	0.289	169.64
	509800	-21499.498	-172.424	0.003	0.290	169.70
	510000	-21605.176	-173.950	0.001	0.289	169.77
	510200	-21693.240	-176.086	0.001	0.288	169.84
	510400	-21775.434	-177.917	0.001	0.287	169.90
	510600	-21892.853	-180.664	0.000	0.287	169.98
	510800	-21969.176	-183.411	0.002	0.287	170.04
	511000	-22039.628	-185.852	-0.001	0.286	170.10
	511200	-22145.305	-187.988	-0.001	0.286	170.18
	511400	-22221.628	-190.125	0.002	0.285	170.24
	511600	-22321.434	-193.481	0.004	0.285	170.30
	511800	-22409.499	-195.923	0.001	0.286	170.37
	512000	-22503.434	-198.669	0.001	0.285	170.44
	512200	-22579.757	-201.111	0.001	0.285	170.54
	512400	-22656.080	-202.942	0.001	0.284	170.58
	512600	-22738.273	-205.383	0.001	0.282	170.64
	512800	-22802.854	-208.740	0.000	0.282	170.70
	513000	-22873.306	-210.571	-0.002	0.280	170.77
	513200	-22932.015	-212.708	0.001	0.280	170.84
	513400	-23002.467	-216.370	0.004	0.280	170.90
	513600	-23096.403	-218.811	0.001	0.279	170.97
	513800	-23160.983	-222.473	0.001	0.278	171.04
	514000	-23225.564	-226.440	0.001	0.276	171.10
	514200	-23307.758	-231.018	0.001	0.272	171.18
	514400	-23366.467	-237.427	0.001	0.268	171.24
	514600	-23431.048	-242.920	0.001	0.264	171.30
	514800	-23489.758	-249.634	-0.001	0.259	171.38
	515000	-23524.984	-255.127	0.000	0.255	171.44
	515200	-23571.951	-260.010	0.003	0.253	171.50
	515400	-23595.435	-265.198	0.002	0.249	171.58
	515600	-23630.661	-270.386	0.002	0.246	171.64
	515800	-23642.403	-275.879	0.001	0.243	171.70
	516000	-23677.629	-278.625	0.001	0.240	171.77
	516200	-23695.242	-284.729	0.002	0.235	171.84
	516400	-23706.984	-290.527	0.001	0.229	171.90
	516600	-23730.468	-296.936	-0.001	0.224	171.98
	516800	-23748.080	-303.040	0.000	0.218	172.04
	517000	-23759.822	-309.448	0.003	0.213	172.10
	517200	-23783.306	-315.857	0.003	0.207	172.18
	517400	-23795.048	-321.655	-0.001	0.201	172.24
	517600	-23818.532	-328.979	0.002	0.196	172.30
	517800	-23888.984	-335.999	0.001	0.191	172.38
	518000	-23941.823	-343.628	0.001	0.185	172.44
	518200	-24018.145	-350.952	0.002	0.179	172.50
	518400	-24076.855	-358.276	-0.001	0.175	172.57
	518600	-24135.565	-366.211	0.000	0.169	172.64
	518800	-24182.532	-372.620	0.001	0.164	172.70
	519000	-24206.016	-378.418	0.005	0.158	172.77
	519200	-24241.242	-385.132	0.002	0.152	172.84
	519400	-24258.855	-391.846	0.001	0.146	172.90
	519600	-24264.726	-398.254	0.001	0.140	172.98
	519800	-24288.210	-404.358	0.001	0.135	173.04
	520000	-24282.339	-410.156	0.001	0.131	173.10
	520200	-24294.081	-415.039	0.000	0.127	173.18
	520400	-24288.210	-420.532	-0.001	0.119	173.24
	520600	-24270.597	-427.246	0.001	0.113	173.30
	520800	-24258.855	-432.739	0.004	0.107	173.37
	521000	-24241.242	-438.843	0.001	0.101	173.44
	521200	-24223.629	-444.946	0.001	0.096	173.50
	521400	-24211.887	-451.355	0.001	0.089	173.57
	521600	-24194.274	-458.374	0.001	0.082	173.64
	521800	-24164.919	-463.257	0.001	0.076	173.70
	522000	-24135.565	-468.445	-0.000	0.072	173.78
	522200	-24117.952	-473.022	-0.000	0.066	173.84
	522400	-24076.855	-475.464	0.001	0.064	173.90
	522600	-24035.758	-480.652	0.003	0.060	173.98
	522800	-24006.403	-485.535	0.002	0.052	174.04
	523000	-24018.145	-491.333	0.002	0.046	174.10
	523200	-24029.887	-497.437	0.000	0.039	174.18
	523400	-24024.016	-504.150	0.001	0.033	174.24
	523600	-24000.532	-509.033	0.002	0.028	174.30
	523800	-23982.919	-514.526	0.001	0.022	174.38
	524000	-23959.435	-520.325	0.000	0.016	174.44
	524200	-23941.823	-524.597	0.000	0.010	174.50
	524400	-23900.726	-529.175	0.003	0.005	174.58
	524600	-23877.242	-534.058	0.003	0.000	174.64
	524800	-23830.274	-538.330	0.001	-0.005	174.70
	525000	-23789.177	-541.382	0.001	-0.009	174.78
	525200	-23971.177	-546.265	0.002	-0.014	174.84
	525400	-24141.436	-553.894	0.001	-0.020	174.90
	525600	-24235.371	-562.134	0.001	-0.024	174.98
	525800	-24305.823	-569.153	-0.001	-0.030	175.04
	526000	-24352.791	-575.562	0.000	-0.034	175.10
	526200	-24417.371	-581.970	0.002	-0.038	175.18
	526400	-24481.952	-586.243	0.004	-0.042	175.24
	526600	-24546.533	-590.820	0.001	-0.045	175.30
	526800	-24587.629	-595.703	0.000	-0.049	175.38
	527000	-24616.984	-600.586	0.001	-0.051	175.44
	527200	-24663.952	-605.469	0.001	-0.052	175.50
	527400	-24675.694	-610.352	0.002	-0.056	175.58
	527600	-24722.662	-613.403	-0.001	-0.059	175.64
	527800	-24734.404	-616.760	-0.001	-0.062	175.70
	528000	-24746.146	-620.422	0.001	-0.065	175.78
	528200	-24763.759	-622.864	0.004	-0.067	175.84
	528400	-24787.242	-623.779	0.002	-0.068	175.90
	528600	-24798.984	-625.305	0.001	-0.071	175.98
	528800	-24834.210	-628.662	0.000	-0.074	176.04
	529000	-24857.694	-631.714	0.001	-0.076	176.10
	529200	-24887.049	-634.766	0.002	-0.078	176.18
	529400	-24910.533	-637.512	-0.001	-0.080	176.24
	529600	-24928.146	-639.954	-0.001	-0.083	176.30
	529800	-24939.888	-641.479	0.001	-0.083	176.38
	530000	-24957.501	-644.531	0.004	-0.085	176.44
	530200	-24963.372	-645.447	0.001	-0.086	176.50
	530400	-24969.243	-646.973	0.001	-0.087	176.58
	530600	-24969.243	-648.804	0.001	-0.088	176.64
	530800	-24975.114	-650.330	0.001	-0.090	176.70
	531000	-24986.855	-650.635	0.001	-0.091	176.78
	531200	-25039.694	-652.771	0.001	-0.092	176.84
	531400	-25092.533	-653.992	-0.001	-0.092	176.90
	531600	-25127.759	-656.128	-0.001	-0.093	176.98
	531800	-25139.501	-658.569	0.003	-0.094	177.04
	532000	-25157.114	-659.485	0.002	-0.093	177.10
	532200	-25168.856	-659.790	0.000	-0.093	177.18
	532400	-25174.727	-660.706	0.000	-0.094	177.24
	532600	-25198.210	-662.231	0.001	-0.095	177.30
	532800	-25186.469	-662.537	0.001	-0.096	177.38
	533000	-25204.081	-663.757	0.000	-0.097	177.44
	533200	-25180.598	-664.062	-0.001	-0.097	177.50
	533400	-25186.469	-663.452	-0.001	-0.097	177.62
	533600	-25180.598	-664.062	0.002	-0.097	177.64
	533800	-25162.985	-663.147	0.002	-0.096	177.70
	534000	-25162.985	-662.537	0.000	-0.096	177.77
	534200	-25157.114	-661.621	0.001	-0.096	177.84
	534400	-25145.372	-662.537	0.001	-0.096	177.90
	534600	-25127.759	-661.926	0.000	-0.097	177.98
	534800	-25104.275	-661.316	0.001	-0.096	178.04
	535000	-25086.662	-661.621	-0.001	-0.097	178.10
	535200	-25080.791	-661.011	-0.001	-0.097	178.18
	535400	-25080.791	-660.706	0.001	-0.098	178.24
	535600	-25045.565	-660.706	0.004	-0.097	178.30
	535800	-25039.694	-659.790	0.001	-0.097	178.38
	536000	-25039.694	-659.180	0.001	-0.096	178.44
	536200	-24992.726	-658.569	0.000	-0.097	178.50
	536400	-24986.855	-657.043	0.000	-0.097	178.58
	536600	-24963.372	-656.738	0.002	-0.098	178.64
	536800	-24945.759	-656.128	-0.001	-0.097	178.70
	537000	-24928.146	-655.518	-0.002	-0.097	178.77
	537200	-24904.662	-655.518	0.001	-0.096	178.84
	537400	-24869.436	-654.297	0.004	-0.096	178.90
	537600	-24851.823	-653.687	0.001	-0.096	178.98
	537800	-24810.726	-653.076	0.000	-0.095	179.04
	538000	-24793.113	-651.855	0.000	-0.096	179.10
	538200	-24757.888	-651.245	0.001	-0.096	179.18
	538400	-24716.791	-650.024	0.001	-0.096	179.24
	538600	-24687.436	-648.804	0.000	-0.096	179.30
	538800	-24669.823	-648.193	-0.001	-0.096	179.38
	539000	-24616.984	-648.804	0.000	-0.095	179.44
	539200	-24587.629	-646.362	0.003	-0.096	179.50
	539400	-24552.404	-646.667	0.002	-0.096	179.58
	539600	-24523.049	-644.836	0.000	-0.095	179.64
	539800	-24481.952	-644.531	0.001	-0.094	179.70
	540000	-24446.726	-642.700	0.000	-0.094	179.78
	540200	-24411.500	-642.090	0.001	-0.094	179.84
	540400	-24370.403	-639.648	0.001	-0.093	179.90
	540600	-24341.049	-638.733	-0.001	-0.092	179.98
	540800	-24305.823	-636.292	-0.001	-0.091	180.04
	541000	-24264.726	-634.155	0.002	-0.090	180.14
	541200	-24229.500	-631.104	0.002	-0.089	180.18
	541400	-24176.661	-628.357	-0.001	-0.088	180.24
	541600	-24123.823	-625.000	0.001	-0.086	180.30
	541800	-24065.113	-623.474	0.000	-0.087	180.38
	542000	-24000.532	-620.117	0.001	-0.083	180.44
	542200	-23930.081	-617.676	0.001	-0.081	180.50
	542400	-23859.629	-615.540	-0.001	-0.081	180.58
	542600	-23795.048	-613.403	-0.002	-0.081	180.64
	542800	-23730.468	-608.521	0.001	-0.079	180.70
	543000	-23671.758	-604.553	0.004	-0.077	180.78
	543200	-23613.048	-599.976	0.001	-0.074	180.84
	543400	-23566.080	-594.177	0.000	-0.070	180.90
	543600	-23507.371	-588.684	-0.001	-0.066	180.98
	543800	-23436.919	-584.412	0.000	-0.062	181.04
	544000	-23360.596	-580.750	0.002	-0.058	181.10
	544200	-23307.758	-576.782	-0.001	-0.055	181.18
	544400	-23260.790	-571.289	-0.002	-0.051	181.24
	544600	-23196.209	-563.965	0.000	-0.047	181.30
	544800	-23131.628	-556.946	0.003	-0.042	181.38
	545000	-23067.048	-552.063	0.001	-0.038	181.44
	545200	-23025.951	-544.739	0.000	-0.032	181.50
	545400	-23078.790	-538.635	0.000	-0.027	181.58
	545600	-23108.145	-534.363	0.000	-0.022	181.64
	545800	-23178.596	-529.785	0.001	-0.017	181.70
	546000	-23237.306	-525.208	-0.001	-0.013	181.78
	546200	-23284.274	-521.851	-0.001	-0.007	181.84
	546400	-23319.500	-517.273	0.000	-0.002	181.90
	546600	-23337.112	-512.085	0.002	0.004	181.98
	546800	-23360.596	-506.897	0.001	0.010	182.04
	547000	-23401.693	-502.319	0.001	0.014	182.10
	547200	-23442.790	-497.437	0.002	0.020	182.18
	547400	-23460.403	-493.164	0.000	0.026	182.24
	547600	-23495.629	-487.976	0.000	0.031	182.30
	547800	-23519.113	-483.093	0.001	0.037	182.38
	548000	-23530.854	-477.905	-0.002	0.044	182.44
	548200	-23554.338	-471.191	0.000	0.049	182.50
	548400	-23566.080	-466.309	0.004	0.055	182.58
	548600	-23583.693	-460.815	0.002	0.060	182.64
	548800	-23636.532	-455.627	0.001	0.065	182.70
	549000	-23742.209	-451.355	0.000	0.070	182.78
	549200	-23836.145	-448.914	0.000	0.075	182.84
	549400	-23912.468	-445.251	0.001	0.081	182.90
	549600	-23977.048	-441.589	0.001	0.087	182.98
	549800	-24024.016	-437.622	-0.001	0.090	183.04
	550000	-24059.242	-433.350	-0.001	0.097	183.10
	550200	-24112.081	-427.856	0.002	0.104	183.18
	550400	-24211.887	-424.194	0.003	0.108	183.24
	550600	-24294.081	-419.922	0.000	0.114	183.30
	550800	-24388.016	-417.480	0.001	0.119	183.38
	551000	-24452.597	-413.818	0.002	0.125	183.44
	551200	-24505.436	-409.546	0.002	0.129	183.50
	551400	-24552.404	-405.579	0.002	0.133	183.58
	551600	-24599.371	-401.611	-0.001	0.139	183.64
	551800	-24646.339	-397.339	-0.001	0.146	183.70
	552000	-24687.436	-392.456	0.002	0.151	183.78
	552200	-24722.662	-387.573	0.004	0.157	183.84
	552400	-24752.017	-382.690	0.002	0.163	183.90
	552600	-24775.500	-378.418	0.002	0.169	183.98
	552800	-24781.371	-374.146	0.002	0.173	184.04
	553000	-24793.113	-369.263	0.001	0.177	184.10
	553200	-24798.984	-364.380	0.002	0.182	184.18
	553400	-24810.726	-359.802	0.000	0.185	184.24
	553600	-24828.339	-355.835	-0.001	0.190	184.30
	553800	-24822.468	-350.647	0.001	0.194	184.38
	554000	-24828.339	-346.069	0.004	0.199	184.44
	554200	-24828.339	-342.407	0.002	0.203	184.50
	554400	-24804.855	-337.524	0.001	0.208	184.58
	554600	-24810.726	-333.252	0.002	0.211	184.64
	554800	-24804.855	-330.200	0.001	0.214	184.70
	555000	-24798.984	-326.233	0.002	0.218	184.78
	555200	-24810.726	-322.876	0.002	0.220	184.90
	555400	-24798.984	-319.519	-0.001	0.224	184.90
	555600	-24787.242	-315.552	0.001	0.228	184.98
	555800	-24757.888	-312.805	0.003	0.231	185.04
	556000	-24740.275	-309.753	0.002	0.235	185.10
	556200	-24734.404	-305.786	0.001	0.237	185.18
	556400	-24716.791	-301.819	0.001	0.241	185.24
	556600	-24710.920	-297.241	0.001	0.244	185.30
	556800	-24705.049	-292.969	0.001	0.248	185.38
	557000	-24693.307	-289.612	0.001	0.251	185.44
	557200	-24675.694	-287.781	-0.000	0.253	185.50
	557400	-24746.146	-285.950	0.000	0.255	185.58
	557600	-24828.339	-283.813	0.002	0.258	185.64
	557800	-24881.178	-282.288	0.004	0.259	185.70
	558000	-24957.501	-281.372	0.002	0.261	185.78
	558200	-25039.694	-280.762	0.001	0.263	185.84
	558400	-25116.017	-280.762	0.001	0.265	185.90
	558600	-25168.856	-280.762	0.001	0.267	185.98
	558800	-25215.823	-280.457	0.002	0.269	186.04
	559000	-25256.920	-280.457	0.000	0.272	186.10
	559200	-25292.146	-279.236	-0.002	0.273	186.18
	559400	-25339.114	-278.015	0.002	0.273	186.24
	559600	-25356.727	-277.710	0.004	0.274	186.30
	559800	-25368.469	-275.269	0.002	0.276	186.38
	560000	-25362.598	-273.743	0.001	0.277	186.44
	560200	-25368.469	-273.438	0.001	0.278	186.50
	560400	-25391.953	-271.912	0.002	0.279	186.58
	560600	-25391.953	-273.132	0.002	0.278	186.64
	560800	-25391.953	-273.743	0.000	0.280	186.70
	561000	-25391.953	-272.827	-0.001	0.280	186.78
	561200	-25368.469	-273.743	0.001	0.280	186.84
	561400	-25374.340	-272.827	0.004	0.280	186.94
	561600	-25380.211	-273.132	0.002	0.281	186.98
	561800	-25374.340	-271.912	0.001	0.282	187.04
	562000	-25380.211	-271.912	0.001	0.283	187.10
	562200	-25374.340	-271.606	0.001	0.283	187.18
	562400	-25380.211	-271.606	0.001	0.283	187.24
	562600	-25386.082	-270.996	0.001	0.282	187.30
	562800	-25368.469	-271.606	-0.001	0.282	187.38
	563000	-25368.469	-272.522	0.001	0.281	187.44
	563200	-25368.469	-271.606	0.004	0.282	187.50
	563400	-25356.727	-271.301	0.003	0.282	187.58
	563600	-25374.340	-272.217	0.002	0.283	187.64
	563800	-25397.823	-271.606	0.002	0.281	187.70
	564000	-25386.082	-272.827	0.001	0.280	187.77
	564200	-25409.565	-275.269	0.002	0.279	187.84
	564400	-25427.178	-275.879	0.002	0.278	187.90
	564600	-25421.307	-277.405	0.000	0.277	187.98
	564800	-25409.565	-278.015	0.000	0.277	188.04
	565000	-25415.436	-279.236	0.003	0.277	188.10
	565200	-25421.307	-280.457	0.004	0.277	188.18
	565400	-25438.920	-281.982	0.001	0.274	188.24
	565600	-25427.178	-283.813	0.001	0.272	188.30
	565800	-25438.920	-287.476	0.001	0.269	188.38
	566000	-25433.049	-291.443	0.002	0.264	188.44
	566200	-25433.049	-299.377	0.002	0.258	188.50
	566400	-25438.920	-304.565	-0.001	0.253	188.58
	566600	-25456.533	-308.533	0.001	0.250	188.64
	566800	-25450.662	-312.195	0.002	0.247	188.70
	567000	-25444.791	-315.552	0.004	0.245	188.78
	567200	-25444.791	-320.740	0.002	0.241	188.84
	567400	-25444.791	-326.538	0.001	0.235	188.90
	567600	-25450.662	-332.336	0.002	0.230	188.98
	567800	-25532.856	-336.609	0.002	0.225	189.04
	568000	-25691.372	-343.018	0.002	0.220	189.10
	568200	-25820.533	-349.426	0.001	0.217	189.18
	568400	-25937.953	-355.835	-0.000	0.213	189.24
	568600	-26020.146	-362.244	0.002	0.209	189.30
	568800	-26108.211	-367.737	0.004	0.205	189.38
	569000	-26166.921	-375.061	0.002	0.201	189.44
	569200	-26231.501	-381.470	0.001	0.197	189.50
	569400	-26290.211	-387.268	0.002	0.193	189.58
	569600	-26348.921	-393.677	0.002	0.190	189.64
	569800	-26407.631	-399.475	0.002	0.186	189.70
	570000	-26466.340	-405.579	0.001	0.183	189.78
	570200	-26513.308	-411.072	0.000	0.178	189.84
	570400	-26554.405	-417.175	0.002	0.174	189.90
	570600	-26595.502	-422.974	0.004	0.170	189.98
	570800	-26648.340	-427.856	0.002	0.165	190.04
	571000	-26701.179	-432.739	0.002	0.162	190.10
	571200	-26759.889	-437.317	0.002	0.158	190.18
	571400	-26777.502	-442.810	0.002	0.155	190.24
	571600	-26824.470	-447.388	0.002	0.150	190.30
	571800	-26871.437	-451.965	0.002	0.146	190.38
	572000	-26912.534	-457.153	0.000	0.141	190.44
	572200	-26936.018	-462.646	0.001	0.138	190.50
	572400	-26965.373	-467.224	0.004	0.135	190.58
	572600	-27006.470	-471.497	0.004	0.131	190.64
	572800	-27041.696	-476.990	0.001	0.126	190.70
	573000	-27065.179	-483.398	0.001	0.122	190.78
	573200	-27106.276	-488.892	0.002	0.118	190.84
