	czas	Si³a 1	Si³a 2	Odkszta³cenie	Uniwersalne	Pozycja
	[ms]	[N]	[N]	[V]	[V]	[mm]
	500	264.633	74.158	0.002	0.049	-0.02
	1000	-1055.717	32.959	0.002	0.049	0.11
	1500	-2119.881	-20.447	0.002	0.049	0.28
	2000	-3088.326	-69.885	0.002	0.053	0.44
	2500	-4053.955	-117.798	0.002	0.054	0.60
	3000	-5227.913	-170.898	0.002	0.054	0.77
	3500	-6097.824	-221.863	0.002	0.052	0.94
	4000	-6486.328	-255.432	0.000	0.054	1.10
	4500	-6849.495	-272.217	0.001	0.054	1.27
	5000	-7060.638	-288.391	0.001	0.054	1.44
	5500	-7173.248	-295.715	0.001	0.054	1.60
	6000	-7226.738	-301.208	0.001	0.052	1.77
	6500	-7156.357	-301.819	0.001	0.051	1.94
	7000	-6990.257	-295.410	0.001	0.051	2.10
	7500	-6801.636	-288.086	0.001	0.052	2.28
	8000	-6590.492	-277.405	0.002	0.055	2.44
	8500	-6373.718	-266.724	0.001	0.057	2.60
	9000	-6179.466	-256.348	0.001	0.057	2.77
	9500	-5973.953	-249.023	0.001	0.055	2.94
	10000	-5816.299	-241.699	0.001	0.054	3.10
	10500	-5644.569	-234.985	-0.000	0.051	3.28
	11000	-5512.253	-228.882	0.000	0.048	3.44
	11500	-5365.860	-224.304	-0.000	0.046	3.60
	12000	-5250.435	-220.337	-0.000	0.044	3.77
	12500	-5135.010	-218.201	-0.001	0.040	3.94
	13000	-5022.400	-213.013	-0.001	0.039	4.11
	13500	-4898.529	-209.351	-0.001	0.038	4.28
	14000	-4802.811	-205.688	-0.002	0.036	4.43
	14500	-4695.831	-201.416	-0.002	0.035	4.61
	15000	-4574.776	-197.754	-0.002	0.032	4.77
	15500	-4462.166	-192.871	-0.002	0.033	4.93
	16000	-4358.002	-189.514	-0.003	0.033	5.11
	16500	-4239.761	-185.852	-0.002	0.031	5.27
	17000	-4127.151	-180.054	-0.003	0.031	5.44
	17500	-4011.726	-174.255	-0.003	0.032	5.60
	18000	-3913.193	-167.847	-0.002	0.030	5.77
	18500	-3792.137	-162.048	-0.003	0.030	5.94
	19000	-3687.973	-155.945	-0.002	0.030	6.10
	19500	-3569.733	-149.841	-0.002	0.029	6.27
	20000	-3474.014	-145.874	-0.002	0.027	6.44
	20500	-3372.665	-139.771	-0.002	0.028	6.60
	21000	-3282.578	-132.751	-0.001	0.031	6.77
	21500	-3203.751	-126.343	-0.001	0.033	6.94
	22000	-3113.663	-121.155	-0.002	0.034	7.10
	22500	-3051.727	-116.882	-0.001	0.032	7.27
	23000	-2981.346	-112.305	-0.001	0.035	7.44
	23500	-2913.780	-107.422	0.000	0.038	7.60
	24000	-2854.660	-101.624	-0.000	0.041	7.78
	24500	-2792.725	-96.130	0.000	0.043	7.94
	25000	-2733.604	-90.332	0.001	0.046	8.10
	25500	-2663.223	-84.839	0.002	0.048	8.28
	26000	-2601.288	-77.820	0.002	0.052	8.44
	26500	-2539.352	-73.242	0.002	0.052	8.60
	27000	-2477.417	-68.970	0.002	0.054	8.78
	27500	-2423.927	-64.697	0.002	0.056	8.94
	28000	-2387.329	-59.204	0.003	0.061	9.10
	28500	-2322.578	-55.847	0.002	0.060	9.28
	29000	-2285.980	-52.490	0.002	0.061	9.44
	29500	-2252.197	-49.438	0.003	0.062	9.60
	30000	-2204.338	-44.250	0.004	0.066	9.78
	30500	-2173.370	-39.062	0.004	0.069	9.94
	31000	-2128.326	-36.316	0.004	0.067	10.10
	31500	-2074.837	-33.569	0.004	0.069	10.28
	32000	-2049.500	-31.433	0.004	0.069	10.44
	32500	-2004.456	-28.687	0.003	0.071	10.60
	33000	-1965.042	-25.330	0.002	0.071	10.77
	33500	-1934.074	-21.362	0.003	0.074	10.94
	34000	-1900.291	-16.785	0.004	0.076	11.10
	34500	-1852.432	-10.681	0.006	0.080	11.27
	35000	-1815.834	-6.104	0.006	0.081	11.44
	35500	-1773.605	0.305	0.008	0.087	11.60
	36000	-1728.561	6.104	0.008	0.090	11.78
	36500	-1706.039	10.376	0.009	0.092	11.94
	37000	-1680.702	15.869	0.009	0.096	12.10
	37500	-1641.289	19.226	0.009	0.098	12.28
	38000	-1618.767	22.888	0.009	0.101	12.44
	38500	-1596.245	26.245	0.009	0.103	12.60
	39000	-1554.016	28.076	0.008	0.102	12.78
	39500	-1525.864	32.959	0.008	0.104	12.94
	40000	-1503.342	39.062	0.009	0.109	13.10
	40500	-1483.635	45.471	0.011	0.116	13.28
	41000	-1503.342	52.795	0.011	0.125	13.44
	41500	-1520.233	57.678	0.011	0.132	13.60
	42000	-1514.603	62.256	0.011	0.135	13.78
	42500	-1503.342	68.665	0.011	0.141	13.94
	43000	-1497.711	76.599	0.013	0.147	14.10
	43500	-1489.265	83.313	0.013	0.156	14.28
	44000	-1463.928	93.079	0.015	0.164	14.44
	44500	-1441.406	101.318	0.016	0.171	14.60
	45000	-1418.884	110.779	0.017	0.179	14.78
	45500	-1396.362	120.239	0.017	0.186	14.94
	46000	-1390.732	126.038	0.019	0.191	15.10
	46500	-1379.471	131.836	0.018	0.194	15.28
	47000	-1368.210	139.160	0.016	0.200	15.44
	47500	-1345.688	146.484	0.016	0.208	15.60
	48000	-1311.905	152.893	0.015	0.213	15.78
	48500	-1289.383	157.471	0.018	0.216	15.94
	49000	-1266.861	164.795	0.016	0.221	16.10
	49500	-1249.969	170.593	0.017	0.227	16.27
	50000	-1227.448	174.255	0.017	0.230	16.43
	50500	-1235.893	178.223	0.016	0.231	16.60
	51000	-1227.448	182.495	0.014	0.235	16.77
	51500	-1224.632	191.650	0.016	0.244	16.93
	52000	-1230.263	200.500	0.017	0.256	17.10
	52500	-1233.078	208.740	0.016	0.264	17.27
	53000	-1233.078	214.539	0.014	0.270	17.43
	53500	-1207.741	220.337	0.014	0.273	17.60
	54000	-1179.588	225.220	0.012	0.277	17.77
	54500	-1159.882	232.239	0.012	0.282	17.93
	55000	-1142.990	240.479	0.012	0.289	18.10
	55500	-1126.099	245.972	0.011	0.292	18.27
	56000	-1100.761	252.991	0.010	0.299	18.43
	56500	-1069.794	256.348	0.009	0.302	18.60
	57000	-1058.533	260.315	0.007	0.303	18.77
	57500	-1109.207	261.536	0.005	0.306	18.93
	58000	-1157.066	263.062	0.004	0.309	19.10
	58500	-1140.175	263.977	0.002	0.310	19.27
	59000	-1148.621	265.198	0.001	0.312	19.43
	59500	-1182.404	266.113	-0.001	0.315	19.60
	60000	-1210.556	264.893	-0.002	0.313	19.77
	60500	-1238.708	264.893	-0.004	0.314	19.93
	61000	-1255.600	265.198	-0.005	0.316	20.10
	61500	-1283.752	264.282	-0.006	0.316	20.27
	62000	-1300.644	263.367	-0.007	0.314	20.43
	62500	-1309.090	263.672	-0.007	0.317	20.60
	63000	-1351.318	263.367	-0.009	0.317	20.78
	63500	-1444.221	260.010	-0.010	0.319	20.94
	64000	-1478.004	256.348	-0.011	0.319	21.10
	64500	-1531.494	252.380	-0.011	0.318	21.28
	65000	-1584.984	249.634	-0.012	0.314	21.44
	65500	-1621.582	248.108	-0.015	0.316	21.60
	66000	-1655.365	245.667	-0.013	0.315	21.78
	66500	-1689.148	244.751	-0.015	0.314	21.94
	67000	-1717.300	242.920	-0.015	0.317	22.10
	67500	-1773.605	241.089	-0.016	0.317	22.28
	68000	-1779.236	238.953	-0.016	0.316	22.44
	68500	-1813.019	235.901	-0.017	0.314	22.60
	69000	-1846.802	234.070	-0.019	0.315	22.78
	69500	-1877.769	231.323	-0.020	0.315	22.94
	70000	-1897.476	229.492	-0.020	0.315	23.10
	70500	-1936.890	227.356	-0.021	0.313	23.28
	71000	-1959.412	225.525	-0.020	0.312	23.44
	71500	-1987.564	223.083	-0.022	0.311	23.60
	72000	-2010.086	222.168	-0.022	0.312	23.78
	72500	-2029.793	219.116	-0.022	0.311	23.94
	73000	-2052.315	217.590	-0.023	0.310	24.10
	73500	-2069.206	216.064	-0.023	0.309	24.28
	74000	-2077.652	213.928	-0.023	0.308	24.44
	74500	-2091.728	212.402	-0.024	0.303	24.60
	75000	-2114.250	211.182	-0.024	0.304	24.78
	75500	-2162.109	209.656	-0.024	0.306	24.94
	76000	-2198.708	206.604	-0.024	0.305	25.10
	76500	-2235.306	204.163	-0.025	0.305	25.28
	77000	-2271.904	202.026	-0.025	0.304	25.44
	77500	-2319.763	199.280	-0.025	0.302	25.60
	78000	-2353.546	196.838	-0.024	0.303	25.78
	78500	-2387.329	194.397	-0.026	0.301	25.94
	79000	-2407.036	191.956	-0.025	0.302	26.10
	79500	-2432.373	190.430	-0.027	0.301	26.28
	80000	-2454.895	189.209	-0.027	0.302	26.44
	80500	-2488.678	186.462	-0.028	0.301	26.60
	81000	-2528.091	182.190	-0.030	0.299	26.78
	81500	-2556.244	181.885	-0.029	0.301	26.94
	82000	-2578.766	180.054	-0.029	0.299	27.10
	82500	-2590.027	178.528	-0.029	0.295	27.28
	83000	-2598.473	177.002	-0.027	0.295	27.44
	83500	-2595.657	177.917	-0.027	0.296	27.60
	84000	-2564.690	178.223	-0.029	0.294	27.78
	84500	-2514.015	180.359	-0.028	0.297	27.94
	85000	-2452.080	184.021	-0.029	0.296	28.10
	85500	-2387.329	187.073	-0.028	0.296	28.28
	86000	-2316.948	191.956	-0.027	0.300	28.44
	86500	-2271.904	196.228	-0.027	0.299	28.60
	87000	-2277.534	198.669	-0.027	0.302	28.78
	87500	-2308.502	199.280	-0.027	0.305	28.94
	88000	-2316.948	200.195	-0.026	0.305	29.10
	88500	-2319.763	200.195	-0.023	0.307	29.28
	89000	-2331.024	202.637	-0.023	0.310	29.44
	89500	-2336.655	204.163	-0.023	0.312	29.60
	90000	-2336.655	206.909	-0.021	0.314	29.78
	90500	-2331.024	208.130	-0.020	0.314	29.94
	91000	-2328.209	209.656	-0.020	0.315	30.10
	91500	-2342.285	208.435	-0.018	0.316	30.28
	92000	-2381.699	208.130	-0.018	0.317	30.44
	92500	-2409.851	208.435	-0.017	0.315	30.60
	93000	-2443.634	204.163	-0.016	0.315	30.78
	93500	-2463.341	204.468	-0.016	0.317	30.94
	94000	-2488.678	205.383	-0.012	0.317	31.10
	94500	-2508.385	203.857	-0.014	0.318	31.28
	95000	-2528.091	203.552	-0.012	0.321	31.44
	95500	-2550.613	203.247	-0.013	0.322	31.60
	96000	-2550.613	202.026	-0.011	0.321	31.78
	96500	-2567.505	200.195	-0.010	0.319	31.94
	97000	-2629.440	197.449	-0.010	0.317	32.10
	97500	-2770.203	193.787	-0.009	0.316	32.28
	98000	-2871.552	185.242	-0.008	0.314	32.44
	98500	-2950.378	182.495	-0.006	0.315	32.60
	99000	-3017.944	177.612	-0.005	0.316	32.78
	99500	-3079.880	174.561	-0.005	0.318	32.94
	100000	-3158.707	170.898	-0.004	0.316	33.10
	100500	-3203.751	166.931	-0.004	0.316	33.28
	101000	-3237.534	165.100	-0.004	0.317	33.44
	101500	-3282.578	162.659	-0.001	0.314	33.60
	102000	-3316.360	161.133	-0.002	0.312	33.78
	102500	-3361.404	159.912	0.000	0.313	33.94
	103000	-3358.589	156.555	-0.002	0.316	34.10
	103500	-3417.709	156.860	-0.001	0.316	34.28
	104000	-3474.014	153.503	-0.001	0.316	34.44
	104500	-3524.689	150.146	0.001	0.316	34.60
	105000	-3566.917	147.095	0.001	0.317	34.78
	105500	-3637.299	144.348	0.001	0.314	34.94
	106000	-3710.495	137.939	0.002	0.311	35.10
	106500	-3789.322	132.446	0.002	0.309	35.28
	107000	-3856.888	130.310	0.004	0.309	35.44
	107500	-3918.823	125.427	0.005	0.308	35.60
	108000	-3992.020	119.934	0.006	0.305	35.78
	108500	-4042.694	114.136	0.008	0.305	35.94
	109000	-4090.553	110.779	0.009	0.303	36.10
	109500	-4132.782	105.286	0.010	0.299	36.28
	110000	-4155.304	103.149	0.012	0.297	36.44
	110500	-4194.717	100.708	0.013	0.295	36.60
	111000	-4214.424	97.961	0.014	0.294	36.78
	111500	-4228.500	95.215	0.013	0.294	36.94
	112000	-4262.283	93.689	0.013	0.294	37.10
	112500	-4290.436	90.332	0.014	0.293	37.28
	113000	-4304.512	86.670	0.015	0.290	37.44
	113500	-4341.110	83.313	0.016	0.287	37.60
	114000	-4358.002	82.092	0.017	0.286	37.78
	114500	-4400.230	79.651	0.016	0.287	37.94
	115000	-4422.752	78.125	0.016	0.288	38.10
	115500	-4448.090	76.294	0.016	0.287	38.28
	116000	-4473.427	75.378	0.015	0.288	38.44
	116500	-4493.134	74.463	0.015	0.287	38.60
	117000	-4510.025	74.463	0.015	0.288	38.78
	117500	-4529.732	74.158	0.015	0.289	38.94
	118000	-4535.362	74.768	0.013	0.287	39.10
	118500	-4543.808	75.073	0.015	0.288	39.28
	119000	-4552.254	75.989	0.013	0.290	39.44
	119500	-4569.145	75.989	0.013	0.291	39.60
	120000	-4571.960	76.904	0.012	0.292	39.78
	120500	-4591.667	76.294	0.013	0.292	39.94
	121000	-4588.852	76.294	0.012	0.292	40.10
	121500	-4591.667	76.904	0.013	0.292	40.28
	122000	-4594.482	78.125	0.012	0.293	40.44
	122500	-4591.667	78.735	0.012	0.294	40.60
	123000	-4600.113	80.261	0.013	0.296	40.78
	123500	-4600.113	79.041	0.012	0.296	40.94
	124000	-4597.298	77.820	0.009	0.294	41.10
	124500	-4594.482	78.430	0.010	0.296	41.28
	125000	-4605.743	78.125	0.011	0.295	41.44
	125500	-4591.667	77.209	0.010	0.296	41.60
	126000	-4591.667	78.430	0.010	0.294	41.78
	126500	-4594.482	78.125	0.012	0.295	41.94
	127000	-4602.928	78.430	0.011	0.296	42.10
	127500	-4594.482	77.209	0.011	0.294	42.28
	128000	-4608.559	77.209	0.010	0.292	42.44
	128500	-4605.743	77.515	0.011	0.294	42.60
	129000	-4611.374	78.430	0.012	0.294	42.78
	129500	-4617.004	76.294	0.012	0.291	42.94
	130000	-4608.559	75.989	0.012	0.291	43.10
	130500	-4614.189	75.684	0.011	0.293	43.28
	131000	-4617.004	76.904	0.012	0.295	43.44
	131500	-4611.374	76.599	0.012	0.295	43.60
	132000	-4614.189	75.684	0.012	0.293	43.78
	132500	-4614.189	75.378	0.012	0.294	43.94
	133000	-4605.743	75.684	0.013	0.293	44.10
	133500	-4605.743	77.820	0.013	0.294	44.28
	134000	-4628.265	77.209	0.014	0.290	44.44
	134500	-4681.755	74.463	0.014	0.292	44.60
	135000	-4712.723	72.327	0.014	0.294	44.78
	135500	-4735.245	71.411	0.015	0.295	44.94
	136000	-4754.951	70.190	0.015	0.296	45.10
	136500	-4769.028	67.139	0.015	0.294	45.28
	137000	-4783.104	65.308	0.014	0.293	45.44
	137500	-4802.811	64.697	0.015	0.295	45.60
	138000	-4794.365	64.697	0.017	0.292	45.78
	138500	-4811.256	62.866	0.014	0.289	45.94
	139000	-4808.441	61.035	0.016	0.286	46.10
	139500	-4814.072	58.899	0.017	0.284	46.28
	140000	-4811.256	57.373	0.016	0.284	46.44
	140500	-4797.180	58.289	0.017	0.286	46.60
	141000	-4799.995	56.763	0.018	0.286	46.78
	141500	-4808.441	55.542	0.018	0.283	46.94
	142000	-4797.180	53.406	0.018	0.277	47.10
	142500	-4802.811	50.964	0.018	0.276	47.28
	143000	-4794.365	49.438	0.018	0.276	47.44
	143500	-4774.658	45.776	0.020	0.275	47.60
	144000	-4785.919	43.945	0.017	0.273	47.78
	144500	-4763.397	42.725	0.019	0.270	47.94
	145000	-4763.397	40.588	0.019	0.269	48.10
	145500	-4757.767	39.368	0.018	0.267	48.28
	146000	-4746.506	37.842	0.019	0.263	48.44
	146500	-4740.875	34.790	0.020	0.262	48.60
	147000	-4774.658	31.433	0.021	0.260	48.78
	147500	-4799.995	25.635	0.023	0.255	48.94
	148000	-4825.333	18.616	0.020	0.250	49.10
	148500	-4873.192	9.766	0.020	0.241	49.28
	149000	-4921.051	2.441	0.020	0.237	49.44
	149500	-5005.508	-4.272	0.018	0.234	49.60
	150000	-5185.684	-11.902	0.018	0.233	49.78
	150500	-5464.394	-25.024	0.019	0.232	49.94
	151000	-5740.288	-40.894	0.021	0.229	50.10
	151500	-5920.464	-55.847	0.022	0.225	50.28
	152000	-6021.812	-66.528	0.021	0.223	50.44
	152500	-6078.117	-73.547	0.020	0.219	50.60
	153000	-6123.161	-79.956	0.021	0.214	50.78
	153500	-6148.499	-84.229	0.023	0.210	50.94
	154000	-6154.129	-88.806	0.022	0.207	51.10
	154500	-6154.129	-90.027	0.020	0.205	51.28
	155000	-6159.760	-95.215	0.022	0.202	51.44
	155500	-6134.422	-100.098	0.020	0.197	51.60
	156000	-6106.270	-104.065	0.022	0.193	51.78
	156500	-6072.487	-105.896	0.023	0.190	51.94
	157000	-6041.519	-107.117	0.022	0.185	52.10
	157500	-6035.889	-108.948	0.021	0.181	52.28
	158000	-6055.595	-112.305	0.021	0.177	52.44
	158500	-6027.443	-115.662	0.021	0.174	52.60
	159000	-5988.029	-117.493	0.021	0.171	52.78
	159500	-5906.387	-119.019	0.020	0.167	52.94
	160000	-5813.484	-118.713	0.020	0.165	53.10
	160500	-5717.766	-116.272	0.018	0.165	53.28
	161000	-5622.047	-112.000	0.018	0.162	53.44
	161500	-5506.622	-108.643	0.017	0.159	53.60
	162000	-5394.012	-104.980	0.019	0.155	53.78
	162500	-5275.772	-101.013	0.018	0.156	53.94
	163000	-5168.793	-99.182	0.018	0.153	54.10
	163500	-5070.259	-97.351	0.018	0.151	54.28
	164000	-4977.356	-97.046	0.017	0.148	54.44
	164500	-4876.007	-93.689	0.015	0.145	54.60
	165000	-4774.658	-89.417	0.016	0.143	54.78
	165500	-4687.386	-85.449	0.017	0.141	54.94
	166000	-4600.113	-80.872	0.016	0.139	55.10
	166500	-4515.656	-76.904	0.018	0.140	55.28
	167000	-4436.829	-74.158	0.016	0.140	55.44
	167500	-4346.741	-70.801	0.016	0.140	55.60
	168000	-4265.099	-67.139	0.016	0.141	55.78
	168500	-4200.348	-62.866	0.018	0.140	55.94
	169000	-4141.228	-60.120	0.016	0.140	56.10
	169500	-4079.292	-58.289	0.015	0.136	56.28
	170000	-4020.172	-56.152	0.016	0.133	56.44
	170500	-3961.052	-53.101	0.017	0.135	56.60
	171000	-3904.747	-49.133	0.017	0.135	56.78
	171500	-3842.812	-45.776	0.016	0.136	56.94
	172000	-3806.213	-42.725	0.016	0.138	57.10
	172500	-3803.398	-40.894	0.019	0.138	57.28
	173000	-3820.290	-42.419	0.016	0.138	57.44
	173500	-3823.105	-42.114	0.017	0.135	57.60
	174000	-3809.029	-41.809	0.016	0.135	57.78
	174500	-3786.507	-40.588	0.017	0.137	57.94
	175000	-3763.985	-40.588	0.016	0.137	58.10
	175500	-3733.017	-42.419	0.016	0.134	58.28
	176000	-3699.234	-41.809	0.015	0.135	58.44
	176500	-3671.082	-42.114	0.015	0.132	58.60
	177000	-3640.114	-39.673	0.016	0.132	58.78
	177500	-3657.005	-36.316	0.017	0.132	58.94
	178000	-3668.266	-36.316	0.018	0.132	59.10
	178500	-3665.451	-36.621	0.017	0.134	59.28
	179000	-3659.821	-35.400	0.017	0.134	59.44
	179500	-3637.299	-35.095	0.017	0.135	59.60
	180000	-3617.592	-34.180	0.017	0.138	59.78
	180500	-3597.885	-31.738	0.017	0.136	59.94
	181000	-3575.363	-31.433	0.018	0.136	60.10
	181500	-3564.102	-27.771	0.019	0.135	60.28
	182000	-3541.580	-25.330	0.018	0.138	60.44
	182500	-3521.873	-24.414	0.018	0.140	60.60
	183000	-3502.167	-24.414	0.017	0.139	60.78
	183500	-3479.645	-25.330	0.016	0.136	60.94
	184000	-3457.123	-21.667	0.017	0.139	61.10
	184500	-3440.231	-21.973	0.017	0.137	61.28
	185000	-3409.264	-23.499	0.017	0.135	61.44
	185500	-3378.296	-25.330	0.016	0.130	61.60
	186000	-3352.959	-25.635	0.015	0.128	61.78
	186500	-3333.252	-24.414	0.016	0.131	61.94
	187000	-3299.469	-23.499	0.016	0.130	62.10
	187500	-3282.578	-21.362	0.016	0.130	62.28
	188000	-3254.425	-21.667	0.016	0.129	62.44
	188500	-3251.610	-22.888	0.016	0.126	62.60
	189000	-3316.360	-28.076	0.015	0.121	62.78
	189500	-3350.143	-31.738	0.016	0.118	62.94
	190000	-3369.850	-31.128	0.015	0.123	63.10
	190500	-3378.296	-32.043	0.016	0.124	63.28
	191000	-3378.296	-32.959	0.016	0.124	63.44
	191500	-3375.481	-33.875	0.016	0.121	63.60
	192000	-3367.035	-35.706	0.014	0.118	63.78
	192500	-3358.589	-35.400	0.016	0.118	63.94
	193000	-3344.513	-30.823	0.016	0.123	64.10
	193500	-3336.067	-28.381	0.016	0.123	64.28
	194000	-3333.252	-25.635	0.015	0.126	64.44
	194500	-3310.730	-22.583	0.015	0.130	64.60
	195000	-3299.469	-19.836	0.016	0.131	64.78
	195500	-3285.393	-16.785	0.016	0.134	64.94
	196000	-3254.425	-14.343	0.017	0.134	65.10
	196500	-3245.979	-9.155	0.018	0.138	65.28
	197000	-3223.457	-6.104	0.018	0.139	65.44
	197500	-3203.751	-5.798	0.020	0.137	65.60
	198000	-3192.490	-4.883	0.018	0.138	65.78
	198500	-3178.413	-2.441	0.020	0.141	65.94
	199000	-3172.783	4.578	0.020	0.146	66.10
	199500	-3164.337	11.292	0.022	0.153	66.28
	200000	-3141.815	17.700	0.023	0.160	66.44
	200500	-3127.739	22.278	0.023	0.164	66.60
	201000	-3167.152	25.024	0.024	0.166	66.78
	201500	-3186.859	25.940	0.025	0.167	66.94
	202000	-3212.196	28.381	0.023	0.171	67.10
	202500	-3254.425	31.738	0.023	0.179	67.28
	203000	-3333.252	33.569	0.024	0.182	67.44
	203500	-3395.187	31.738	0.024	0.185	67.60
	204000	-3428.970	29.907	0.023	0.184	67.78
	204500	-3468.384	27.161	0.024	0.183	67.94
	205000	-3496.536	26.245	0.024	0.185	68.10
	205500	-3544.395	25.330	0.020	0.186	68.28
	206000	-3592.255	24.109	0.022	0.189	68.44
	206500	-3626.038	22.278	0.023	0.190	68.60
	207000	-3659.821	20.447	0.023	0.189	68.78
	207500	-3693.604	17.395	0.024	0.185	68.94
	208000	-3716.125	15.259	0.023	0.185	69.10
	208500	-3896.301	8.545	0.022	0.183	69.28
	209000	-4025.803	-0.610	0.021	0.180	69.44
	209500	-4121.521	-7.019	0.022	0.177	69.60
	210000	-4191.902	-11.292	0.022	0.180	69.78
	210500	-4256.653	-14.648	0.021	0.181	69.94
	211000	-4310.143	-18.311	0.020	0.179	70.10
	211500	-4352.371	-23.804	0.022	0.178	70.28
	212000	-4391.785	-26.245	0.022	0.178	70.44
	212500	-4411.491	-27.771	0.023	0.177	70.60
	213000	-4448.090	-30.212	0.022	0.174	70.78
	213500	-4510.025	-32.654	0.021	0.172	70.94
	214000	-4594.482	-38.452	0.022	0.175	71.10
	214500	-4673.309	-40.588	0.023	0.175	71.28
	215000	-4704.277	-40.588	0.023	0.179	71.44
	215500	-4735.245	-40.283	0.022	0.182	71.60
	216000	-4766.212	-39.062	0.023	0.184	71.78
	216500	-4780.289	-39.062	0.022	0.184	71.94
	217000	-4842.224	-39.062	0.023	0.184	72.10
	217500	-4960.464	-43.335	0.021	0.184	72.28
	218000	-5042.107	-44.861	0.021	0.186	72.44
	218500	-5089.966	-43.640	0.023	0.192	72.60
	219000	-5129.379	-43.030	0.023	0.196	72.78
	219500	-5163.162	-43.030	0.023	0.197	72.94
	220000	-5171.608	-42.725	0.023	0.197	73.10
	220500	-5168.793	-40.588	0.024	0.198	73.28
	221000	-5174.423	-39.673	0.023	0.199	73.44
	221500	-5174.423	-38.757	0.023	0.200	73.60
	222000	-5160.347	-36.621	0.025	0.203	73.78
	222500	-5157.532	-36.316	0.023	0.203	73.94
	223000	-5154.716	-37.231	0.024	0.201	74.10
	223500	-5135.010	-35.706	0.023	0.201	74.28
	224000	-5135.010	-36.316	0.022	0.200	74.44
	224500	-5137.825	-35.706	0.021	0.201	74.60
	225000	-5135.010	-36.621	0.022	0.199	74.78
	225500	-5157.532	-37.842	0.021	0.199	74.94
	226000	-5165.977	-37.842	0.022	0.201	75.10
	226500	-5154.716	-36.621	0.023	0.202	75.28
	227000	-5168.793	-35.706	0.024	0.203	75.44
	227500	-5154.716	-36.316	0.024	0.202	75.60
	228000	-5163.162	-38.452	0.025	0.201	75.78
	228500	-5163.162	-41.504	0.024	0.198	75.94
	229000	-5154.716	-44.250	0.024	0.193	76.10
	229500	-5168.793	-46.082	0.023	0.191	76.28
	230000	-5151.901	-47.913	0.027	0.189	76.44
	230500	-5149.086	-49.744	0.025	0.186	76.60
	231000	-5154.716	-50.354	0.025	0.187	76.78
	231500	-5157.532	-53.711	0.024	0.184	76.94
	232000	-5202.576	-57.068	0.023	0.184	77.10
	232500	-5227.913	-61.340	0.022	0.181	77.28
	233000	-5236.359	-64.392	0.021	0.178	77.44
	233500	-5256.065	-65.308	0.023	0.177	77.60
	234000	-5256.065	-69.275	0.023	0.176	77.78
	234500	-5287.033	-71.716	0.021	0.176	77.94
	235000	-5278.587	-76.904	0.023	0.170	78.10
	235500	-5315.186	-82.703	0.022	0.164	78.28
	236000	-5348.969	-87.891	0.020	0.161	78.44
	236500	-5360.229	-92.773	0.020	0.156	78.60
	237000	-5427.795	-98.877	0.020	0.150	78.78
	237500	-5455.948	-104.980	0.019	0.147	78.94
	238000	-5461.578	-110.474	0.020	0.142	79.10
	238500	-5433.426	-115.967	0.019	0.138	79.28
	239000	-5416.534	-118.103	0.017	0.135	79.44
	239500	-5450.317	-122.986	0.016	0.133	79.60
	240000	-5461.578	-127.869	0.016	0.128	79.78
	240500	-5500.992	-131.531	0.016	0.126	79.94
	241000	-5495.361	-137.329	0.016	0.117	80.10
	241500	-5478.470	-142.212	0.015	0.115	80.28
	242000	-5461.578	-147.705	0.014	0.110	80.44
	242500	-5447.502	-153.809	0.012	0.102	80.60
	243000	-5430.611	-157.471	0.012	0.096	80.78
	243500	-5416.534	-160.522	0.012	0.094	80.94
	244000	-5382.751	-163.574	0.012	0.091	81.10
	244500	-5346.153	-169.678	0.011	0.083	81.28
	245000	-5298.294	-176.697	0.009	0.072	81.44
	245500	-5258.881	-182.190	0.005	0.063	81.60
	246000	-5196.945	-186.462	0.003	0.057	81.78
	246500	-5149.086	-186.768	0.003	0.055	81.94
	247000	-5087.151	-188.599	0.002	0.051	82.10
	247500	-5030.846	-190.125	0.002	0.045	82.28
	248000	-4985.802	-193.176	0.001	0.039	82.44
	248500	-4921.051	-194.702	0.001	0.036	82.60
	249000	-4876.007	-195.923	-0.001	0.031	82.78
	249500	-4830.963	-198.364	-0.003	0.024	82.94
	250000	-4785.919	-201.721	-0.004	0.021	83.10
	250500	-4743.690	-203.552	-0.005	0.016	83.28
	251000	-4701.462	-205.383	-0.009	0.013	83.44
	251500	-4659.233	-207.214	-0.008	0.011	83.60
	252000	-4611.374	-209.045	-0.009	0.007	83.78
	252500	-4580.406	-212.402	-0.011	0.001	83.94
	253000	-4529.732	-214.844	-0.013	-0.006	84.10
	253500	-4487.503	-217.896	-0.017	-0.011	84.28
	254000	-4462.166	-219.116	-0.018	-0.012	84.44
	254500	-4419.937	-220.947	-0.022	-0.017	84.60
	255000	-4391.785	-222.168	-0.025	-0.020	84.78
	255500	-4358.002	-222.778	-0.026	-0.021	84.94
	256000	-4332.664	-221.863	-0.030	-0.022	85.10
	256500	-4304.512	-220.947	-0.033	-0.021	85.28
	257000	-4251.022	-219.727	-0.031	-0.022	85.44
	257500	-4222.870	-218.506	-0.036	-0.023	85.60
	258000	-4217.239	-217.896	-0.037	-0.022	85.78
	258500	-4220.055	-215.454	-0.038	-0.022	85.94
	259000	-4200.348	-215.454	-0.042	-0.021	86.11
	259500	-4211.609	-214.233	-0.047	-0.019	86.28
	260000	-4197.533	-212.402	-0.049	-0.018	86.44
	260500	-4163.750	-209.351	-0.050	-0.015	86.61
	261000	-4118.706	-205.994	-0.054	-0.013	86.78
	261500	-4053.955	-198.669	-0.060	-0.009	86.94
	262000	-3992.020	-190.125	-0.063	-0.004	87.10
	262500	-3924.454	-179.443	-0.062	0.004	87.28
	263000	-3834.366	-169.983	-0.067	0.010	87.44
	263500	-3778.061	-159.302	-0.066	0.018	87.60
	264000	-3699.234	-150.452	-0.067	0.025	87.78
	264500	-3648.560	-140.991	-0.074	0.031	87.94
	265000	-3592.255	-133.362	-0.072	0.033	88.10
	265500	-3535.950	-125.732	-0.068	0.039	88.28
	266000	-3468.384	-116.577	-0.070	0.048	88.44
	266500	-3437.416	-106.506	-0.070	0.055	88.60
	267000	-3389.557	-100.098	-0.068	0.058	88.78
	267500	-3341.698	-93.689	-0.067	0.060	88.94
	268000	-3293.839	-88.806	-0.070	0.064	89.10
	268500	-3260.056	-82.092	-0.068	0.068	89.28
	269000	-3203.751	-73.547	-0.069	0.072	89.44
	269500	-3169.968	-67.139	-0.066	0.077	89.61
	270000	-3127.739	-61.340	-0.066	0.083	89.78
	270500	-3091.141	-54.932	-0.068	0.085	89.94
	271000	-3048.912	-51.270	-0.068	0.088	90.10
	271500	-3020.760	-43.030	-0.074	0.094	90.28
	272000	-3046.097	-36.621	-0.072	0.100	90.44
	272500	-3040.466	-31.128	-0.073	0.105	90.61
	273000	-3034.836	-23.804	-0.076	0.112	90.78
	273500	-3032.021	-16.785	-0.070	0.120	90.94
	274000	-3001.053	-7.324	-0.071	0.130	91.11
	274500	-2989.792	1.831	-0.067	0.140	91.28
	275000	-2961.639	12.512	-0.067	0.149	91.44
	275500	-2927.856	22.888	-0.064	0.158	91.61
	276000	-2910.965	28.687	-0.063	0.162	91.78
	276500	-2888.443	34.485	-0.060	0.165	91.94
	277000	-2860.291	41.504	-0.059	0.170	92.11
	277500	-2820.877	50.354	-0.055	0.178	92.28
	278000	-2798.355	58.899	-0.055	0.185	92.44
	278500	-2770.203	69.885	-0.051	0.194	92.61
	279000	-2736.420	76.294	-0.052	0.200	92.78
	279500	-2702.637	82.092	-0.051	0.204	92.94
	280000	-2674.484	90.637	-0.052	0.212	93.11
	280500	-2651.962	101.318	-0.050	0.220	93.28
	281000	-2615.364	110.474	-0.047	0.226	93.44
	281500	-2592.842	115.967	-0.045	0.231	93.60
	282000	-2553.429	121.155	-0.046	0.234	93.78
	282500	-2530.907	128.174	-0.045	0.239	93.94
	283000	-2502.754	135.803	-0.044	0.245	94.10
	283500	-2522.461	142.517	-0.045	0.252	94.28
	284000	-2612.549	144.958	-0.042	0.258	94.44
	284500	-2657.593	147.095	-0.041	0.260	94.60
	285000	-2685.745	150.146	-0.039	0.264	94.78
	285500	-2691.376	154.419	-0.038	0.271	94.94
	286000	-2685.745	159.912	-0.035	0.277	95.11
	286500	-2685.745	167.236	-0.032	0.284	95.28
	287000	-2685.745	174.255	-0.030	0.291	95.44
	287500	-2682.930	180.664	-0.027	0.294	95.61
	288000	-2671.669	183.105	-0.024	0.295	95.78
	288500	-2654.778	187.988	-0.023	0.298	95.94
	289000	-2637.886	193.481	-0.020	0.302	96.11
	289500	-2623.810	194.702	-0.018	0.304	96.28
	290000	-2629.440	196.533	-0.016	0.305	96.44
	290500	-2598.473	197.449	-0.015	0.304	96.61
	291000	-2598.473	197.754	-0.013	0.304	96.78
	291500	-2564.690	199.585	-0.013	0.307	96.94
	292000	-2553.429	199.280	-0.012	0.305	97.11
	292500	-2539.352	200.195	-0.010	0.304	97.28
	293000	-2514.015	199.585	-0.008	0.303	97.44
	293500	-2508.385	200.806	-0.006	0.303	97.61
	294000	-2516.830	200.195	-0.002	0.301	97.78
	294500	-2485.863	199.890	-0.000	0.301	97.94
	295000	-2497.124	198.059	0.002	0.302	98.11
	295500	-2530.907	195.312	0.007	0.298	98.28
	296000	-2553.429	190.125	0.009	0.292	98.44
	296500	-2618.179	183.411	0.012	0.289	98.60
	297000	-2657.593	177.002	0.015	0.287	98.78
	297500	-2691.376	170.593	0.013	0.284	98.94
	298000	-2713.898	162.354	0.014	0.276	99.11
	298500	-2730.789	154.114	0.015	0.270	99.28
	299000	-2742.050	148.926	0.016	0.265	99.44
	299500	-2742.050	140.381	0.018	0.256	99.61
	300000	-2753.311	133.972	0.020	0.251	99.78
	300500	-2758.942	126.648	0.020	0.243	99.94
	301000	-2747.681	117.798	0.018	0.236	100.11
	301500	-2753.311	108.948	0.016	0.226	100.28
	302000	-2750.496	103.760	0.016	0.223	100.44
	302500	-2742.050	102.844	0.020	0.222	100.61
	303000	-2736.420	97.961	0.020	0.218	100.78
	303500	-2725.159	94.299	0.020	0.214	100.94
	304000	-2722.343	87.891	0.021	0.208	101.11
	304500	-2708.267	85.449	0.020	0.204	101.28
	305000	-2708.267	81.787	0.020	0.198	101.44
	305500	-2697.006	76.294	0.021	0.193	101.61
	306000	-2725.159	68.970	0.021	0.187	101.78
	306500	-2747.681	62.561	0.022	0.181	101.94
	307000	-2767.387	56.763	0.021	0.177	102.11
	307500	-2803.986	50.049	0.021	0.173	102.28
	308000	-2829.323	43.030	0.021	0.169	102.44
	308500	-2860.291	35.095	0.019	0.161	102.61
	309000	-2879.997	28.076	0.019	0.156	102.78
	309500	-2899.704	20.142	0.018	0.148	102.94
	310000	-2930.672	12.512	0.016	0.142	103.11
	310500	-2953.194	5.798	0.015	0.137	103.28
	311000	-2972.900	-2.441	0.013	0.129	103.44
	311500	-2984.161	-9.460	0.014	0.122	103.61
	312000	-3003.868	-15.259	0.014	0.118	103.78
	312500	-3017.944	-22.278	0.013	0.112	103.94
	313000	-3026.390	-26.855	0.012	0.107	104.11
	313500	-3034.836	-33.569	0.011	0.103	104.28
	314000	-3040.466	-39.978	0.011	0.097	104.44
	314500	-3046.097	-46.387	0.011	0.089	104.61
	315000	-3051.727	-55.847	0.009	0.079	104.78
	315500	-3105.217	-66.528	0.008	0.070	104.94
	316000	-3144.630	-76.904	0.005	0.061	105.11
	316500	-3175.598	-84.534	0.004	0.055	105.28
	317000	-3217.827	-91.248	0.004	0.052	105.44
	317500	-3282.578	-100.098	0.002	0.047	105.61
	318000	-3324.806	-110.168	0.001	0.038	105.78
	318500	-3358.589	-120.239	-0.000	0.029	105.94
	319000	-3395.187	-126.038	-0.001	0.027	106.11
	319500	-3428.970	-131.226	-0.002	0.025	106.28
	320000	-3443.047	-137.329	-0.004	0.019	106.44
	320500	-3485.275	-144.958	-0.005	0.011	106.61
	321000	-3519.058	-153.198	-0.008	0.005	106.78
	321500	-3552.841	-160.522	-0.010	-0.000	106.94
	322000	-3586.624	-167.542	-0.014	-0.005	107.11
	322500	-3626.038	-173.035	-0.016	-0.009	107.28
	323000	-3671.082	-179.138	-0.018	-0.013	107.44
	323500	-3704.865	-185.242	-0.021	-0.018	107.61
	324000	-3758.354	-189.514	-0.025	-0.020	107.78
	324500	-3806.213	-191.650	-0.027	-0.020	107.94
	325000	-3800.583	-194.702	-0.028	-0.020	108.11
	325500	-3851.257	-195.618	-0.027	-0.020	108.28
	326000	-3873.779	-198.669	-0.030	-0.022	108.44
	326500	-3896.301	-200.806	-0.031	-0.025	108.61
	327000	-3921.638	-202.026	-0.032	-0.026	108.78
	327500	-3918.823	-203.247	-0.032	-0.026	108.94
	328000	-3932.899	-204.163	-0.033	-0.025	109.11
	328500	-3952.606	-203.247	-0.039	-0.025	109.28
	329000	-3949.791	-203.247	-0.038	-0.026	109.44
	329500	-3952.606	-201.721	-0.044	-0.025	109.61
	330000	-3949.791	-203.247	-0.046	-0.026	109.78
	330500	-4014.542	-202.332	-0.047	-0.024	109.94
	331000	-4093.369	-203.857	-0.055	-0.023	110.11
	331500	-4155.304	-204.773	-0.055	-0.019	110.28
	332000	-4175.011	-203.247	-0.063	-0.016	110.44
	332500	-4197.533	-202.637	-0.062	-0.014	110.61
	333000	-4194.717	-200.500	-0.064	-0.010	110.78
	333500	-4177.826	-198.364	-0.062	-0.006	110.94
	334000	-4155.304	-195.007	-0.074	-0.003	111.11
	334500	-4129.967	-190.735	-0.064	0.001	111.28
	335000	-4087.738	-184.326	-0.068	0.005	111.44
	335500	-4098.999	-180.359	-0.071	0.007	111.61
	336000	-4127.151	-180.359	-0.076	0.009	111.78
	336500	-4129.967	-178.528	-0.075	0.005	111.94
	337000	-4138.412	-177.917	-0.065	0.008	112.11
	337500	-4132.782	-175.476	-0.065	0.011	112.28
	338000	-4175.011	-172.424	-0.066	0.015	112.44
	338500	-4245.392	-173.950	-0.070	0.015	112.61
	339000	-4293.251	-176.086	-0.068	0.017	112.78
	339500	-4341.110	-176.392	-0.066	0.018	112.94
	340000	-4374.893	-175.476	-0.066	0.022	113.11
	340500	-4434.013	-174.561	-0.071	0.023	113.28
	341000	-4555.069	-176.697	-0.079	0.027	113.44
	341500	-4639.526	-180.054	-0.077	0.031	113.61
	342000	-4715.538	-182.800	-0.078	0.030	113.78
	342500	-4777.473	-182.800	-0.077	0.032	113.94
	343000	-4822.517	-182.190	-0.076	0.037	114.11
	343500	-4830.963	-178.223	-0.074	0.044	114.28
	344000	-4876.007	-173.645	-0.070	0.050	114.44
	344500	-4906.975	-169.678	-0.073	0.054	114.61
	345000	-4926.682	-166.321	-0.068	0.057	114.78
	345500	-4952.019	-167.236	-0.073	0.062	114.94
	346000	-4977.356	-168.152	-0.071	0.064	115.11
	346500	-5013.954	-168.457	-0.066	0.063	115.28
	347000	-5022.400	-169.373	-0.072	0.066	115.44
	347500	-5053.368	-169.373	-0.076	0.066	115.61
	348000	-5073.074	-172.119	-0.068	0.066	115.78
	348500	-5084.335	-173.645	-0.074	0.061	115.94
	349000	-5104.042	-175.171	-0.079	0.060	116.11
	349500	-5123.749	-176.697	-0.076	0.060	116.28
	350000	-5123.749	-176.392	-0.072	0.060	116.44
	350500	-5146.271	-174.866	-0.072	0.064	116.61
	351000	-5160.347	-173.645	-0.077	0.066	116.78
	351500	-5146.271	-173.035	-0.071	0.067	116.94
	352000	-5151.901	-171.814	-0.078	0.068	117.11
	352500	-5126.564	-171.814	-0.076	0.065	117.28
	353000	-5092.781	-170.288	-0.071	0.065	117.44
	353500	-5064.629	-168.152	-0.070	0.068	117.61
	354000	-5016.769	-163.574	-0.070	0.071	117.78
	354500	-4949.203	-158.691	-0.072	0.074	117.94
	355000	-4895.714	-154.419	-0.072	0.075	118.11
	355500	-4814.072	-150.146	-0.078	0.076	118.28
	356000	-4729.614	-142.822	-0.076	0.079	118.44
	356500	-4650.787	-137.939	-0.073	0.078	118.61
	357000	-4569.145	-132.446	-0.072	0.079	118.78
	357500	-4481.873	-123.901	-0.072	0.083	118.94
	358000	-4386.154	-116.272	-0.073	0.088	119.11
	358500	-4293.251	-106.812	-0.070	0.093	119.28
	359000	-4211.609	-99.792	-0.074	0.095	119.44
	359500	-4115.891	-94.910	-0.074	0.095	119.61
	360000	-4034.248	-87.280	-0.073	0.098	119.78
	360500	-3938.530	-77.820	-0.074	0.102	119.94
	361000	-3848.442	-70.496	-0.074	0.106	120.11
	361500	-3778.061	-63.477	-0.074	0.109	120.28
	362000	-3682.343	-55.542	-0.077	0.113	120.44
	362500	-3614.777	-47.607	-0.074	0.116	120.61
	363000	-3530.319	-40.894	-0.075	0.118	120.78
	363500	-3454.308	-35.400	-0.077	0.119	120.94
	364000	-3381.111	-31.738	-0.071	0.119	121.11
	364500	-3305.099	-26.245	-0.077	0.118	121.28
	365000	-3243.164	-20.142	-0.075	0.123	121.44
	365500	-3172.783	-11.902	-0.072	0.128	121.61
	366000	-3108.032	-5.493	-0.067	0.132	121.78
	366500	-3046.097	2.136	-0.065	0.136	121.94
	367000	-2978.531	8.240	-0.062	0.141	122.11
	367500	-2939.117	12.512	-0.062	0.142	122.28
	368000	-2874.367	16.174	-0.071	0.141	122.44
	368500	-2815.247	21.057	-0.066	0.141	122.61
	369000	-2756.126	26.855	-0.063	0.144	122.78
	369500	-2702.637	33.264	-0.062	0.147	122.94
	370000	-2666.039	37.842	-0.058	0.151	123.11
	370500	-2640.701	43.030	-0.060	0.155	123.28
	371000	-2623.810	45.776	-0.059	0.156	123.44
	371500	-2578.766	50.049	-0.057	0.159	123.61
	372000	-2556.244	54.932	-0.057	0.162	123.78
	372500	-2516.830	58.899	-0.059	0.163	123.94
	373000	-2480.232	63.477	-0.054	0.166	124.11
	373500	-2449.265	68.359	-0.060	0.171	124.28
	374000	-2421.112	71.106	-0.060	0.172	124.44
	374500	-2378.883	73.242	-0.059	0.172	124.61
	375000	-2353.546	75.073	-0.057	0.172	124.78
	375500	-2316.948	76.904	-0.062	0.172	124.94
	376000	-2291.611	77.209	-0.056	0.170	125.11
	376500	-2252.197	79.041	-0.060	0.172	125.28
	377000	-2240.936	80.566	-0.062	0.172	125.44
	377500	-2198.708	81.482	-0.062	0.170	125.61
	378000	-2179.001	83.313	-0.061	0.172	125.78
	378500	-2139.587	83.923	-0.063	0.171	125.94
	379000	-2117.065	82.703	-0.062	0.168	126.11
	379500	-2097.359	81.177	-0.062	0.164	126.28
	380000	-2060.760	79.346	-0.062	0.160	126.44
	380500	-2043.869	77.209	-0.063	0.157	126.61
	381000	-2007.271	75.684	-0.063	0.155	126.78
	381500	-2004.456	73.242	-0.064	0.150	126.94
	382000	-2072.021	67.749	-0.068	0.147	127.11
	382500	-2156.479	60.120	-0.067	0.144	127.28
	383000	-2257.828	54.016	-0.067	0.141	127.44
	383500	-2345.100	46.692	-0.069	0.140	127.61
	384000	-2398.590	39.978	-0.070	0.137	127.78
	384500	-2435.188	34.485	-0.071	0.132	127.94
	385000	-2477.417	30.212	-0.073	0.131	128.11
	385500	-2494.308	25.024	-0.070	0.128	128.28
	386000	-2522.461	19.836	-0.074	0.123	128.44
	386500	-2542.168	15.869	-0.075	0.123	128.61
	387000	-2561.874	13.123	-0.074	0.119	128.78
	387500	-2575.951	10.376	-0.074	0.116	128.94
	388000	-2590.027	7.324	-0.078	0.112	129.11
	388500	-2601.288	5.798	-0.077	0.110	129.28
	389000	-2606.918	3.967	-0.076	0.111	129.44
	389500	-2651.962	2.136	-0.076	0.110	129.61
	390000	-2694.191	-1.221	-0.078	0.108	129.78
	390500	-2722.343	-3.357	-0.071	0.108	129.94
	391000	-2747.681	-0.916	-0.072	0.110	130.11
	391500	-2744.865	1.221	-0.079	0.112	130.28
	392000	-2770.203	1.221	-0.074	0.113	130.44
	392500	-2778.648	0.305	-0.079	0.110	130.61
	393000	-2792.725	-1.221	-0.075	0.113	130.78
	393500	-2846.214	-3.052	-0.074	0.113	130.94
	394000	-2865.921	-4.272	-0.078	0.112	131.11
	394500	-2894.073	-6.104	-0.078	0.113	131.28
	395000	-2922.226	-6.714	-0.078	0.111	131.44
	395500	-2950.378	-11.292	-0.079	0.110	131.61
	396000	-2981.346	-14.954	-0.084	0.104	131.78
	396500	-3012.314	-20.447	-0.087	0.100	131.94
	397000	-3026.390	-25.635	-0.081	0.098	132.11
	397500	-3048.912	-28.992	-0.083	0.094	132.28
	398000	-3079.880	-34.790	-0.083	0.091	132.44
	398500	-3102.402	-38.757	-0.081	0.088	132.61
	399000	-3108.032	-42.725	-0.088	0.086	132.78
	399500	-3124.924	-46.997	-0.083	0.082	132.94
	400000	-3127.739	-52.490	-0.083	0.078	133.11
	400500	-3144.630	-57.068	-0.081	0.072	133.28
	401000	-3169.968	-61.035	-0.082	0.070	133.44
	401500	-3169.968	-64.697	-0.084	0.067	133.61
	402000	-3186.859	-68.665	-0.079	0.066	133.78
	402500	-3203.751	-72.021	-0.079	0.061	133.94
	403000	-3203.751	-77.820	-0.077	0.056	134.11
	403500	-3215.012	-79.041	-0.079	0.055	134.28
	404000	-3229.088	-81.482	-0.082	0.052	134.44
	404500	-3231.903	-83.923	-0.081	0.050	134.61
	405000	-3240.349	-83.313	-0.081	0.051	134.78
	405500	-3257.240	-86.060	-0.081	0.049	134.94
	406000	-3268.501	-88.196	-0.082	0.048	135.11
	406500	-3276.947	-90.027	-0.081	0.048	135.28
	407000	-3265.686	-90.942	-0.076	0.047	135.44
	407500	-3251.610	-91.858	-0.081	0.046	135.61
	408000	-3274.132	-94.604	-0.077	0.041	135.78
	408500	-3262.871	-95.215	-0.079	0.041	135.94
	409000	-3293.839	-94.910	-0.078	0.042	136.11
	409500	-3291.023	-94.910	-0.080	0.041	136.28
	410000	-3299.469	-96.130	-0.082	0.039	136.44
	410500	-3305.099	-97.656	-0.082	0.039	136.61
	411000	-3307.915	-99.792	-0.081	0.038	136.78
	411500	-3338.882	-104.370	-0.084	0.036	136.94
	412000	-3361.404	-108.337	-0.085	0.030	137.11
	412500	-3361.404	-112.305	-0.082	0.026	137.28
	413000	-3381.111	-116.272	-0.090	0.023	137.44
	413500	-3386.742	-118.103	-0.086	0.020	137.61
	414000	-3417.709	-121.460	-0.086	0.019	137.78
	414500	-3423.340	-125.122	-0.089	0.017	137.94
	415000	-3434.601	-126.648	-0.081	0.017	138.11
	415500	-3462.753	-130.005	-0.081	0.014	138.28
	416000	-3490.906	-137.329	-0.088	0.006	138.44
	416500	-3524.689	-140.381	-0.086	0.004	138.61
	417000	-3521.873	-144.653	-0.083	0.002	138.78
	417500	-3541.580	-147.705	-0.079	0.000	138.94
	418000	-3572.548	-154.114	-0.081	-0.007	139.11
	418500	-3589.439	-158.691	-0.083	-0.009	139.28
	419000	-3611.961	-162.354	-0.076	-0.012	139.44
	419500	-3628.853	-167.847	-0.082	-0.017	139.61
	420000	-3645.744	-172.119	-0.080	-0.022	139.78
	420500	-3676.712	-174.255	-0.080	-0.022	139.94
	421000	-3704.865	-179.443	-0.072	-0.024	140.11
	421500	-3713.310	-182.495	-0.073	-0.028	140.28
	422000	-3727.386	-186.157	-0.070	-0.029	140.44
	422500	-3749.908	-188.293	-0.067	-0.033	140.61
	423000	-3772.430	-191.040	-0.065	-0.035	140.78
	423500	-3800.583	-192.566	-0.058	-0.034	140.94
	424000	-3806.213	-195.312	-0.058	-0.037	141.11
	424500	-3845.627	-197.449	-0.056	-0.039	141.28
	425000	-3856.888	-196.228	-0.052	-0.037	141.44
	425500	-3859.703	-199.280	-0.055	-0.037	141.61
	426000	-3873.779	-199.890	-0.056	-0.037	141.78
	426500	-3893.486	-201.111	-0.049	-0.039	141.94
	427000	-3904.747	-203.247	-0.049	-0.039	142.11
	427500	-3913.193	-202.332	-0.047	-0.038	142.28
	428000	-3913.193	-201.416	-0.042	-0.038	142.44
	428500	-3924.454	-202.026	-0.040	-0.037	142.61
	429000	-3918.823	-203.552	-0.040	-0.038	142.78
	429500	-3916.008	-202.332	-0.039	-0.038	142.94
	430000	-3930.084	-202.026	-0.038	-0.038	143.11
	430500	-3921.638	-202.332	-0.034	-0.036	143.28
	431000	-3924.454	-200.195	-0.033	-0.038	143.44
	431500	-3927.269	-198.669	-0.033	-0.035	143.61
	432000	-3913.193	-197.144	-0.034	-0.036	143.78
	432500	-3913.193	-195.923	-0.029	-0.032	143.94
	433000	-3901.932	-195.618	-0.031	-0.032	144.11
	433500	-3916.008	-192.566	-0.028	-0.031	144.28
	434000	-3899.117	-190.125	-0.026	-0.028	144.44
	434500	-3899.117	-188.599	-0.021	-0.025	144.61
	435000	-3896.301	-184.937	-0.024	-0.023	144.78
	435500	-3904.747	-180.359	-0.020	-0.018	144.94
	436000	-3899.117	-176.392	-0.020	-0.016	145.11
	436500	-3907.562	-174.561	-0.016	-0.013	145.28
	437000	-3913.193	-172.424	-0.017	-0.008	145.44
	437500	-3913.193	-168.457	-0.015	-0.005	145.61
	438000	-3882.225	-165.100	-0.011	-0.002	145.78
	438500	-3879.410	-161.438	-0.009	-0.001	145.94
	439000	-3885.040	-158.997	-0.007	0.002	146.11
	439500	-3885.040	-155.334	-0.009	0.005	146.28
	440000	-3882.225	-152.283	-0.009	0.005	146.44
	440500	-3879.410	-150.757	-0.010	0.009	146.61
	441000	-3885.040	-148.315	-0.004	0.012	146.78
	441500	-3946.976	-148.010	-0.004	0.015	146.94
	442000	-3986.389	-147.705	-0.002	0.017	147.11
	442500	-4014.542	-147.095	-0.002	0.021	147.28
	443000	-4025.803	-146.790	-0.002	0.022	147.44
	443500	-4028.618	-147.400	-0.001	0.021	147.61
	444000	-4034.248	-146.179	-0.001	0.020	147.78
	444500	-4031.433	-143.738	0.000	0.024	147.94
	445000	-4028.618	-142.212	0.001	0.026	148.11
	445500	-4028.618	-137.939	0.001	0.031	148.28
	446000	-4031.433	-133.972	0.002	0.034	148.44
	446500	-4031.433	-130.615	0.003	0.038	148.61
	447000	-4028.618	-128.174	0.004	0.039	148.78
	447500	-4037.064	-125.732	0.004	0.043	148.94
	448000	-4039.879	-124.512	0.002	0.043	149.11
	448500	-4017.357	-120.850	0.004	0.050	149.28
	449000	-4025.803	-115.967	0.005	0.055	149.44
	449500	-4031.433	-112.000	0.006	0.058	149.61
	450000	-4051.140	-108.337	0.009	0.062	149.78
	450500	-4090.553	-104.675	0.011	0.068	149.94
	451000	-4121.521	-101.318	0.011	0.072	150.11
	451500	-4239.761	-101.013	0.012	0.076	150.28
	452000	-4369.263	-106.506	0.011	0.074	150.44
	452500	-4459.351	-108.643	0.011	0.076	150.61
	453000	-4549.438	-108.337	0.013	0.081	150.78
	453500	-4617.004	-106.201	0.013	0.089	150.94
	454000	-4676.125	-104.675	0.013	0.094	151.11
	454500	-4726.799	-101.318	0.015	0.100	151.28
	455000	-4769.028	-97.961	0.016	0.108	151.44
	455500	-4814.072	-94.910	0.016	0.112	151.61
	456000	-4861.931	-91.553	0.017	0.116	151.78
	456500	-4892.899	-86.060	0.018	0.127	151.94
	457000	-4971.725	-80.566	0.019	0.135	152.11
	457500	-5028.030	-78.735	0.021	0.139	152.28
	458000	-5073.074	-74.158	0.021	0.145	152.44
	458500	-5095.596	-69.580	0.020	0.151	152.61
	459000	-5126.564	-65.308	0.020	0.157	152.78
	459500	-5151.901	-61.951	0.022	0.160	152.94
	460000	-5157.532	-57.068	0.022	0.165	153.11
	460500	-5163.162	-50.964	0.022	0.172	153.28
	461000	-5168.793	-43.335	0.023	0.181	153.44
	461500	-5180.054	-36.926	0.021	0.187	153.61
	462000	-5165.977	-30.212	0.024	0.193	153.78
	462500	-5143.456	-21.973	0.026	0.200	153.94
	463000	-5115.303	-14.648	0.025	0.207	154.11
	463500	-5089.966	-10.681	0.022	0.207	154.28
	464000	-5070.259	-3.967	0.020	0.214	154.44
	464500	-5056.183	4.883	0.022	0.223	154.61
	465000	-5044.922	14.038	0.022	0.231	154.78
	465500	-5022.400	20.142	0.022	0.239	154.94
	466000	-4999.878	25.940	0.023	0.245	155.11
	466500	-4943.573	33.264	0.025	0.250	155.28
	467000	-4909.790	39.062	0.022	0.253	155.44
	467500	-4870.377	45.776	0.021	0.258	155.61
	468000	-4830.963	50.964	0.021	0.259	155.78
	468500	-4799.995	57.678	0.021	0.263	155.94
	469000	-4760.582	64.087	0.020	0.267	156.11
	469500	-4715.538	70.801	0.020	0.272	156.28
	470000	-4659.233	75.073	0.017	0.273	156.44
	470500	-4614.189	79.041	0.015	0.276	156.61
	471000	-4571.960	84.839	0.014	0.280	156.78
	471500	-4524.101	90.637	0.016	0.280	156.94
	472000	-4476.242	96.436	0.011	0.282	157.11
	472500	-4436.829	101.624	0.009	0.289	157.28
	473000	-4377.708	106.812	0.005	0.294	157.44
	473500	-4332.664	111.084	0.003	0.294	157.61
	474000	-4296.066	113.831	0.001	0.292	157.78
	474500	-4273.544	114.746	0.000	0.292	157.94
	475000	-4231.316	115.662	-0.003	0.292	158.11
	475500	-4191.902	120.544	-0.006	0.293	158.28
	476000	-4160.934	122.070	-0.009	0.293	158.44
	476500	-4110.260	125.732	-0.011	0.296	158.61
	477000	-4104.630	125.732	-0.012	0.296	158.78
	477500	-4053.955	128.174	-0.013	0.294	158.94
	478000	-4008.911	129.395	-0.016	0.297	159.11
	478500	-3975.128	131.226	-0.018	0.297	159.28
	479000	-3946.976	132.141	-0.018	0.294	159.44
	479500	-3910.378	131.836	-0.020	0.293	159.61
	480000	-3873.779	133.057	-0.021	0.292	159.78
	480500	-3839.996	130.920	-0.024	0.288	159.94
	481000	-3823.105	130.615	-0.026	0.286	160.11
	481500	-3800.583	130.005	-0.027	0.285	160.28
	482000	-3778.061	128.479	-0.029	0.283	160.44
	482500	-3758.354	127.869	-0.029	0.281	160.61
	483000	-3735.832	127.869	-0.032	0.280	160.78
	483500	-3716.125	126.038	-0.033	0.276	160.94
	484000	-3702.049	124.207	-0.035	0.274	161.11
	484500	-3825.920	116.577	-0.038	0.273	161.28
	485000	-3882.225	110.474	-0.038	0.271	161.44
	485500	-3907.562	105.591	-0.039	0.267	161.61
	486000	-3924.454	101.929	-0.040	0.264	161.78
	486500	-3941.345	97.656	-0.041	0.262	161.94
	487000	-3958.237	94.604	-0.042	0.259	162.11
	487500	-3963.867	91.553	-0.042	0.254	162.28
	488000	-3969.498	89.111	-0.043	0.254	162.44
	488500	-3980.759	87.280	-0.043	0.253	162.61
	489000	-3983.574	84.229	-0.044	0.250	162.78
	489500	-3983.574	80.566	-0.044	0.246	162.94
	490000	-3997.650	77.209	-0.044	0.244	163.11
	490500	-4003.281	74.158	-0.048	0.242	163.28
	491000	-4000.465	69.580	-0.051	0.237	163.44
	491500	-4008.911	68.054	-0.052	0.235	163.61
	492000	-4017.357	66.223	-0.048	0.235	163.78
	492500	-4020.172	63.171	-0.050	0.233	163.94
	493000	-4025.803	58.594	-0.051	0.229	164.11
	493500	-4042.694	54.016	-0.056	0.226	164.28
	494000	-4059.586	48.523	-0.056	0.219	164.44
	494500	-4062.401	44.250	-0.055	0.218	164.61
	495000	-4076.477	39.368	-0.055	0.215	164.78
	495500	-4177.826	32.043	-0.057	0.209	164.94
	496000	-4245.392	19.836	-0.062	0.200	165.11
	496500	-4312.958	8.850	-0.062	0.191	165.28
	497000	-4363.632	2.441	-0.057	0.186	165.44
	497500	-4394.600	-3.967	-0.060	0.183	165.61
	498000	-4434.013	-12.512	-0.060	0.176	165.78
	498500	-4459.351	-21.973	-0.061	0.169	165.94
	499000	-4479.057	-28.076	-0.063	0.164	166.11
	499500	-4512.840	-34.485	-0.067	0.158	166.28
	500000	-4535.362	-39.978	-0.067	0.156	166.44
	500500	-4571.960	-46.082	-0.068	0.153	166.61
	501000	-4605.743	-54.016	-0.065	0.146	166.78
	501500	-4617.004	-60.730	-0.069	0.141	166.94
	502000	-4639.526	-68.359	-0.074	0.134	167.11
	502500	-4662.048	-75.378	-0.070	0.130	167.28
	503000	-4712.723	-83.008	-0.078	0.122	167.44
	503500	-4814.072	-95.215	-0.078	0.113	167.61
	504000	-4836.594	-104.065	-0.075	0.107	167.78
	504500	-4861.931	-110.474	-0.080	0.103	167.94
	505000	-4887.268	-115.967	-0.074	0.098	168.11
	505500	-4895.714	-122.986	-0.078	0.093	168.28
	506000	-4909.790	-129.395	-0.075	0.089	168.44
	506500	-4915.421	-136.414	-0.080	0.081	168.61
	507000	-4932.312	-142.517	-0.078	0.074	168.78
	507500	-4935.127	-147.705	-0.079	0.068	168.94
	508000	-4937.943	-150.757	-0.081	0.065	169.11
	508500	-4923.866	-153.198	-0.079	0.062	169.28
	509000	-4935.127	-155.945	-0.084	0.059	169.44
	509500	-4915.421	-161.133	-0.079	0.055	169.61
	510000	-4898.529	-165.710	-0.078	0.052	169.78
	510500	-4909.790	-168.762	-0.078	0.045	169.94
	511000	-4887.268	-175.476	-0.081	0.038	170.11
	511500	-4887.268	-180.359	-0.080	0.033	170.28
	512000	-4878.822	-184.326	-0.086	0.029	170.44
	512500	-4881.638	-190.430	-0.084	0.023	170.61
	513000	-4864.746	-191.040	-0.081	0.023	170.78
	513500	-4859.116	-192.261	-0.076	0.024	170.94
	514000	-4842.224	-194.092	-0.072	0.021	171.11
	514500	-4814.072	-194.397	-0.077	0.018	171.28
	515000	-4816.887	-194.702	-0.069	0.018	171.44
	515500	-4785.919	-197.449	-0.075	0.011	171.61
	516000	-4780.289	-201.416	-0.074	0.007	171.78
	516500	-4746.506	-205.688	-0.074	0.003	171.94
	517000	-4732.430	-210.876	-0.081	-0.005	172.11
	517500	-4709.908	-212.097	-0.076	-0.006	172.28
	518000	-4701.462	-216.675	-0.071	-0.010	172.44
	518500	-4667.679	-217.590	-0.073	-0.009	172.61
	519000	-4642.342	-217.896	-0.074	-0.013	172.78
	519500	-4611.374	-217.896	-0.072	-0.017	172.94
	520000	-4600.113	-217.896	-0.075	-0.017	173.11
	520500	-4566.330	-218.506	-0.069	-0.019	173.28
	521000	-4538.177	-217.896	-0.067	-0.020	173.44
	521500	-4526.917	-217.896	-0.075	-0.022	173.61
	522000	-4504.395	-218.811	-0.062	-0.024	173.78
	522500	-4504.395	-220.947	-0.057	-0.024	173.94
	523000	-4459.351	-221.252	-0.064	-0.028	174.11
	523500	-4462.166	-221.252	-0.062	-0.027	174.28
	524000	-4405.861	-220.032	-0.045	-0.025	174.44
	524500	-4386.154	-219.727	-0.065	-0.028	174.61
	525000	-4352.371	-219.727	-0.059	-0.028	174.78
	525500	-4324.219	-218.201	-0.058	-0.030	174.94
	526000	-4273.544	-216.980	-0.056	-0.031	175.11
	526500	-4256.653	-215.759	-0.060	-0.032	175.28
	527000	-4205.978	-214.844	-0.059	-0.033	175.44
	527500	-4189.087	-213.928	-0.059	-0.033	175.61
	528000	-4183.456	-212.402	-0.059	-0.034	175.78
	528500	-4197.533	-210.876	-0.059	-0.033	175.94
	529000	-4186.272	-212.708	-0.058	-0.034	176.11
	529500	-4175.011	-209.961	-0.059	-0.033	176.28
	530000	-4155.304	-210.266	-0.058	-0.031	176.44
	530500	-4132.782	-208.740	-0.060	-0.029	176.61
	531000	-4110.260	-208.740	-0.054	-0.031	176.78
	531500	-4087.738	-208.435	-0.058	-0.033	176.94
	532000	-4062.401	-206.299	-0.059	-0.032	177.11
	532500	-4042.694	-202.637	-0.061	-0.029	177.28
	533000	-3997.650	-202.332	-0.059	-0.028	177.44
	533500	-3961.052	-199.280	-0.057	-0.024	177.61
	534000	-3952.606	-199.280	-0.056	-0.026	177.78
	534500	-3927.269	-197.449	-0.052	-0.027	177.94
	535000	-3904.747	-196.838	-0.053	-0.026	178.11
	535500	-3873.779	-195.007	-0.052	-0.026	178.28
	536000	-3868.149	-194.092	-0.057	-0.026	178.44
	536500	-3859.703	-193.176	-0.056	-0.027	178.61
	537000	-3839.996	-194.092	-0.056	-0.029	178.78
	537500	-3828.735	-193.176	-0.055	-0.029	178.94
	538000	-3794.952	-191.650	-0.055	-0.028	179.11
	538500	-3882.225	-194.702	-0.052	-0.024	179.28
	539000	-3949.791	-198.059	-0.051	-0.028	179.44
	539500	-4006.096	-202.332	-0.051	-0.035	179.61
	540000	-4056.770	-206.299	-0.051	-0.033	179.78
	540500	-4129.967	-206.909	-0.051	-0.030	179.94
	541000	-4456.535	-219.727	-0.051	-0.031	180.11
	541500	-4718.353	-233.459	-0.050	-0.034	180.28
	542000	-4895.714	-243.530	-0.052	-0.035	180.44
	542500	-5047.737	-252.686	-0.052	-0.034	180.61
	543000	-5211.021	-260.620	-0.051	-0.034	180.78
	543500	-5365.860	-267.944	-0.051	-0.035	180.94
	544000	-5495.361	-275.269	-0.049	-0.036	181.11
	544500	-5630.493	-281.982	-0.046	-0.035	181.28
	545000	-5734.657	-287.476	-0.047	-0.036	181.44
	545500	-5816.299	-294.189	-0.047	-0.035	181.61
	546000	-5923.279	-296.326	-0.043	-0.032	181.78
	546500	-6018.997	-299.988	-0.045	-0.031	181.94
	547000	-6075.302	-304.565	-0.041	-0.031	182.11
	547500	-6159.760	-308.533	-0.040	-0.035	182.28
	548000	-6258.293	-311.584	-0.038	-0.034	182.44
	548500	-6294.891	-318.604	-0.036	-0.035	182.61
	549000	-6424.393	-321.960	-0.032	-0.037	182.78
	549500	-6475.067	-326.538	-0.039	-0.037	182.94
	550000	-6548.264	-329.895	-0.036	-0.038	183.11
	550500	-6593.307	-332.031	-0.037	-0.034	183.28
	551000	-6674.950	-335.693	-0.036	-0.035	183.44
	551500	-6736.885	-335.693	-0.036	-0.032	183.61
	552000	-6804.451	-339.966	-0.039	-0.035	183.78
	552500	-6855.125	-343.628	-0.040	-0.033	183.94
	553000	-6900.169	-347.290	-0.040	-0.033	184.11
	553500	-6945.213	-347.900	-0.036	-0.033	184.28
	554000	-7021.225	-350.647	-0.040	-0.031	184.44
	554500	-7055.008	-352.783	-0.040	-0.031	184.61
	555000	-7142.281	-355.530	-0.047	-0.035	184.78
	555500	-7229.553	-362.244	-0.042	-0.038	184.94
	556000	-7322.456	-367.432	-0.048	-0.034	185.11
	556500	-7404.099	-369.873	-0.046	-0.032	185.28
	557000	-7471.664	-373.535	-0.046	-0.031	185.44
	557500	-7522.339	-375.366	-0.052	-0.031	185.61
	558000	-7589.905	-378.418	-0.054	-0.030	185.78
	558500	-7646.210	-381.775	-0.048	-0.029	185.94
	559000	-7716.591	-386.047	-0.064	-0.031	186.11
	559500	-7775.711	-389.099	-0.057	-0.034	186.28
	560000	-7812.309	-392.761	-0.061	-0.032	186.44
	560500	-7871.429	-394.592	-0.053	-0.031	186.61
	561000	-7927.734	-396.729	-0.060	-0.031	186.78
	561500	-7978.409	-398.865	-0.056	-0.029	186.94
