	czas	Si³a 1	Si³a 2	Odkszta³cenie	Uniwersalne	Pozycja
	[ms]	[N]	[N]	[V]	[V]	[mm]
	200	47.859	52.490	4.474	1.998	0.00
	400	-140.762	50.354	4.875	2.085	0.04
	600	-529.266	35.706	3.775	2.012	0.10
	800	-1109.207	22.278	4.399	1.890	0.16
	1000	-1796.127	-2.441	4.609	1.971	0.22
	1200	-2542.168	-32.959	4.613	2.014	0.28
	1400	-3260.056	-67.139	4.627	2.031	0.36
	1600	-3952.606	-104.675	4.407	2.013	0.42
	1800	-4693.016	-139.771	4.438	1.979	0.48
	2000	-5464.394	-176.697	4.475	1.991	0.55
	2200	-6348.381	-217.896	4.431	1.987	0.62
	2400	-7314.011	-261.230	4.471	1.973	0.68
	2600	-8330.315	-306.091	4.441	1.969	0.74
	2800	-9388.847	-357.056	4.411	1.967	0.82
	3000	-10489.609	-408.020	4.662	2.003	0.88
	3200	-11705.795	-463.562	4.656	2.032	0.94
	3400	-13127.495	-525.818	4.628	2.047	1.01
	3600	-14599.869	-592.041	4.594	2.049	1.08
	3800	-16136.993	-661.926	4.659	2.047	1.14
	4000	-17600.922	-733.337	4.608	2.038	1.22
	4200	-19000.099	-803.833	4.601	2.029	1.28
	4400	-20179.688	-873.108	4.527	2.018	1.34
	4600	-21283.264	-936.890	4.543	2.009	1.41
	4800	-22333.351	-994.263	4.551	2.007	1.48
	5000	-23220.154	-1045.837	4.485	1.996	1.54
	5200	-23980.270	-1091.309	4.465	1.981	1.61
	5400	-24484.200	-1130.066	4.528	1.981	1.68
	5600	-24793.877	-1159.973	4.477	1.981	1.74
	5800	-24906.487	-1180.115	4.525	1.976	1.80
	6000	-25005.020	-1194.153	4.527	1.984	1.88
	6200	-24988.129	-1202.698	4.600	1.999	1.94
	6400	-24895.226	-1206.360	4.529	1.993	2.00
	6600	-24698.158	-1205.139	4.513	1.996	2.08
	6800	-24422.264	-1198.730	4.544	1.990	2.14
	7000	-24112.587	-1190.491	4.537	1.987	2.20
	7200	-23771.942	-1180.115	4.576	1.992	2.27
	7400	-23408.775	-1167.908	4.569	2.003	2.34
	7600	-23079.391	-1156.311	4.589	2.001	2.40
	7800	-22747.192	-1144.104	4.627	2.011	2.46
	8000	-22403.732	-1130.981	4.617	2.011	2.54
	8200	-22057.457	-1119.690	4.608	2.007	2.60
	8400	-21761.856	-1107.178	4.618	2.005	2.66
	8600	-21454.994	-1094.666	4.576	2.001	2.73
	8800	-21204.437	-1083.679	4.547	1.992	2.80
	9000	-20945.435	-1073.303	4.566	1.979	2.86
	9200	-20666.725	-1063.843	4.564	1.976	2.92
	9400	-20410.538	-1053.162	4.615	1.977	3.00
	9600	-20157.166	-1045.227	4.606	1.984	3.06
	9800	-19943.207	-1036.072	4.629	1.991	3.12
	10000	-19723.618	-1028.748	4.662	1.986	3.19
	10200	-19515.289	-1022.339	4.578	1.978	3.26
	10400	-19312.592	-1015.930	4.581	1.974	3.32
	10600	-19115.524	-1009.827	4.520	1.961	3.38
	10800	-18924.088	-1002.808	4.445	1.935	3.46
	11000	-18743.912	-997.925	4.487	1.928	3.52
	11200	-18555.290	-993.958	4.515	1.934	3.58
	11400	-18397.636	-987.854	4.528	1.938	3.65
	11600	-18239.983	-981.750	4.383	1.913	3.72
	11800	-18059.807	-978.088	4.395	1.894	3.78
	12000	-17896.523	-975.647	4.449	1.894	3.84
	12200	-17750.130	-971.985	4.402	1.886	3.92
	12400	-17589.661	-967.102	4.437	1.876	3.98
	12600	-17460.159	-964.661	4.375	1.870	4.04
	12800	-17308.136	-963.745	4.596	1.901	4.12
	13000	-17161.743	-962.219	4.594	1.924	4.18
	13200	-17035.057	-959.167	4.604	1.931	4.24
	13400	-16883.034	-955.811	4.576	1.931	4.31
	13600	-16764.793	-953.369	4.505	1.916	4.38
	13800	-16654.999	-952.148	4.464	1.902	4.44
	14000	-16517.052	-950.623	4.420	1.885	4.50
	14200	-16387.550	-950.623	4.460	1.872	4.58
	14400	-16272.125	-950.623	4.362	1.855	4.64
	14600	-16151.070	-948.792	4.301	1.829	4.70
	14800	-16044.090	-948.181	4.291	1.808	4.78
	15000	-15928.665	-948.181	4.318	1.804	4.84
	15200	-15816.055	-950.012	4.327	1.805	4.90
	15400	-15714.706	-952.148	4.272	1.793	4.96
	15600	-15588.020	-949.707	4.264	1.784	5.04
	15800	-15489.487	-943.298	4.274	1.779	5.10
	16000	-15396.584	-938.110	4.401	1.770	5.16
	16200	-15289.604	-935.669	4.388	1.797	5.24
	16400	-15199.516	-932.312	4.525	1.847	5.30
	16600	-15089.722	-932.922	4.473	1.849	5.36
	16800	-14991.188	-931.396	4.568	1.854	5.43
	17000	-14903.915	-931.091	4.541	1.866	5.50
	17200	-14813.828	-932.007	4.495	1.862	5.56
	17400	-14706.848	-932.007	4.501	1.852	5.62
	17600	-14633.652	-931.091	4.541	1.854	5.70
	17800	-14537.933	-928.650	4.478	1.837	5.76
	18000	-14445.030	-926.819	4.453	1.830	5.82
	18200	-14363.388	-924.988	4.495	1.829	5.90
	18400	-14281.746	-924.683	4.476	1.830	5.96
	18600	-14177.582	-923.157	4.492	1.830	6.02
	18800	-14110.016	-921.326	4.479	1.835	6.09
	19000	-14019.928	-917.664	4.486	1.831	6.16
	19200	-13935.471	-914.307	4.353	1.798	6.22
	19400	-13853.828	-910.339	4.317	1.776	6.28
	19600	-13763.741	-906.372	4.456	1.785	6.36
	19800	-13684.914	-904.236	4.472	1.802	6.42
	20000	-13603.271	-903.015	4.455	1.812	6.48
	20200	-13530.075	-903.931	4.505	1.806	6.56
	20400	-13445.618	-904.541	4.400	1.795	6.62
	20600	-13378.052	-906.677	4.408	1.781	6.68
	20800	-13287.964	-905.151	4.316	1.763	6.75
	21000	-13206.322	-903.320	4.304	1.750	6.82
	21200	-13135.941	-902.405	4.289	1.739	6.88
	21400	-13062.744	-900.269	4.352	1.735	6.94
	21600	-12978.287	-897.827	4.323	1.738	7.02
	21800	-12907.906	-896.301	4.369	1.746	7.08
	22000	-12826.263	-893.250	4.383	1.743	7.14
	22200	-12753.067	-892.639	4.232	1.732	7.22
	22400	-12674.240	-890.198	4.320	1.723	7.28
	22600	-12589.783	-886.536	4.254	1.720	7.34
	22800	-12519.402	-882.263	4.249	1.711	7.41
	23000	-12451.836	-878.906	4.173	1.692	7.48
	23200	-12358.932	-874.634	4.355	1.717	7.54
	23400	-12296.997	-871.887	4.274	1.725	7.60
	23600	-12226.616	-870.056	4.283	1.723	7.68
	23800	-12150.604	-868.530	4.272	1.714	7.74
	24000	-12077.408	-864.563	4.295	1.713	7.80
	24200	-12007.027	-862.427	4.254	1.705	7.88
	24400	-11931.015	-861.511	4.271	1.704	7.94
	24600	-11855.003	-857.544	4.295	1.707	8.00
	24800	-11795.883	-852.356	4.261	1.708	8.07
	25000	-11717.056	-848.083	4.202	1.690	8.14
	25200	-11657.936	-845.337	4.292	1.702	8.20
	25400	-11587.555	-842.590	4.191	1.705	8.26
	25600	-11508.728	-839.233	4.357	1.723	8.34
	25800	-11446.793	-837.097	4.320	1.732	8.40
	26000	-11390.488	-834.656	4.321	1.728	8.46
	26200	-11314.476	-830.383	4.305	1.724	8.54
	26400	-11260.986	-827.026	4.314	1.722	8.60
	26600	-11187.790	-825.500	4.320	1.718	8.66
	26800	-11123.039	-823.669	4.340	1.725	8.72
	27000	-11063.919	-819.702	4.346	1.726	8.80
	27200	-11004.799	-818.176	4.339	1.727	8.86
	27400	-10931.602	-812.683	4.348	1.734	8.93
	27600	-10875.298	-806.274	4.348	1.740	8.99
	27800	-10821.808	-801.697	4.403	1.750	9.06
	28000	-10754.242	-799.866	4.311	1.740	9.12
	28200	-10703.568	-796.204	4.371	1.740	9.20
	28400	-10652.893	-791.931	4.405	1.740	9.26
	28600	-10590.958	-787.659	4.420	1.752	9.32
	28800	-10534.653	-781.250	4.417	1.762	9.38
	29000	-10483.978	-774.841	4.328	1.757	9.46
	29200	-10422.043	-766.296	4.383	1.758	9.52
	29400	-10379.814	-758.972	4.432	1.769	9.59
	29600	-10331.955	-753.479	4.466	1.782	9.65
	29800	-10278.465	-749.207	4.389	1.784	9.72
	30000	-10222.160	-745.544	4.422	1.783	9.78
	30200	-10179.932	-743.103	4.422	1.781	9.85
	30400	-10129.257	-738.220	4.404	1.780	9.92
	30600	-10084.213	-733.337	4.418	1.777	9.98
	30800	-10039.169	-730.286	4.351	1.770	10.04
	31000	-9982.864	-727.234	4.356	1.766	10.12
	31200	-9937.820	-723.267	4.423	1.781	10.18
	31400	-9898.407	-718.994	4.345	1.769	10.24
	31600	-9844.917	-715.027	4.326	1.761	10.32
	31800	-9797.058	-711.670	4.464	1.779	10.38
	32000	-9768.906	-707.703	4.484	1.801	10.44
	32200	-9712.601	-702.515	4.470	1.810	10.51
	32400	-9667.557	-698.242	4.477	1.812	10.58
	32600	-9639.404	-693.359	4.407	1.801	10.64
	32800	-9583.099	-689.392	4.493	1.808	10.70
	33000	-9540.871	-686.340	4.475	1.817	10.78
	33200	-9515.533	-680.542	4.466	1.818	10.84
	33400	-9462.044	-677.185	4.470	1.819	10.90
	33600	-9419.815	-672.607	4.447	1.816	10.98
	33800	-9388.847	-668.030	4.431	1.814	11.04
	34000	-9343.803	-663.757	4.347	1.807	11.10
	34200	-9301.575	-659.790	4.351	1.792	11.17
	34400	-9276.237	-654.907	4.350	1.783	11.24
	34600	-9234.009	-651.855	4.347	1.778	11.30
	34800	-9191.780	-648.193	4.293	1.772	11.36
	35000	-9166.443	-642.090	4.372	1.776	11.44
	35200	-9121.399	-638.123	4.327	1.784	11.50
	35400	-9087.616	-632.629	4.383	1.775	11.56
	35600	-9056.648	-628.052	4.362	1.788	11.64
	35800	-9020.050	-623.169	4.317	1.784	11.70
	36000	-8980.637	-620.728	4.322	1.774	11.76
	36200	-8958.115	-618.286	4.320	1.776	11.83
	36400	-8918.701	-613.708	4.389	1.794	11.90
	36600	-8876.472	-608.215	4.381	1.800	11.96
	36800	-8862.396	-603.333	4.359	1.801	12.02
	37000	-8825.798	-595.703	4.626	1.837	12.10
	37200	-8786.385	-591.736	4.614	1.870	12.16
	37400	-8766.678	-588.989	4.483	1.885	12.22
	37600	-8732.895	-584.106	4.443	1.864	12.30
	37800	-8699.112	-579.224	4.441	1.855	12.36
	38000	-8676.590	-574.341	4.550	1.862	12.42
	38200	-8642.807	-570.984	4.488	1.871	12.49
	38400	-8603.394	-567.627	4.516	1.871	12.56
	38600	-8580.872	-566.101	4.471	1.872	12.62
	38800	-8552.719	-559.998	4.540	1.879	12.68
	39000	-8518.936	-556.030	4.580	1.896	12.76
	39200	-8496.414	-552.063	4.571	1.899	12.82
	39400	-8465.446	-548.706	4.512	1.905	12.88
	39600	-8434.479	-544.739	4.620	1.905	12.96
	39800	-8417.587	-540.771	4.587	1.915	13.02
	40000	-8386.620	-535.583	4.610	1.918	13.08
	40200	-8361.282	-528.564	4.613	1.921	13.15
	40400	-8338.760	-522.766	4.779	1.906	13.22
	40600	-8369.728	-522.156	4.857	1.988	13.28
	40800	-8423.218	-523.376	4.620	2.000	13.34
	41000	-8473.892	-520.020	4.875	2.023	13.42
	41200	-8490.784	-517.273	4.544	1.982	13.48
	41400	-8490.784	-512.085	4.570	1.956	13.54
	41600	-8504.860	-507.507	4.589	1.945	13.62
	41800	-8510.490	-503.845	4.586	1.952	13.68
	42000	-8502.045	-500.793	4.600	1.945	13.74
	42200	-8510.490	-497.437	4.607	1.953	13.81
	42400	-8502.045	-493.469	4.728	1.981	13.88
	42600	-8490.784	-491.638	4.757	2.002	13.94
	42800	-8487.968	-489.197	4.741	2.014	14.00
	43000	-8482.338	-484.924	4.770	2.025	14.08
	43200	-8465.446	-480.652	4.810	2.036	14.14
	43400	-8459.816	-476.379	4.767	2.034	14.20
	43600	-8465.446	-470.886	4.757	2.034	14.28
	43800	-8468.262	-464.478	4.771	2.037	14.34
	44000	-8479.523	-461.426	4.782	2.044	14.40
	44200	-8490.784	-458.374	4.760	2.028	14.47
	44400	-8487.968	-455.627	4.700	2.037	14.54
	44600	-8479.523	-451.660	4.728	2.031	14.60
	44800	-8476.707	-448.303	4.720	2.027	14.66
	45000	-8496.414	-444.031	4.815	2.036	14.74
	45200	-8510.490	-441.895	4.702	2.057	14.80
	45400	-8527.382	-440.369	4.753	2.066	14.86
	45600	-8530.197	-439.453	4.756	2.060	14.94
	45800	-8521.751	-436.096	4.863	2.075	15.00
	46000	-8518.936	-432.739	4.749	2.067	15.06
	46200	-8518.936	-428.772	4.700	2.055	15.13
	46400	-8502.045	-425.110	4.739	2.051	15.20
	46600	-8524.567	-421.448	4.712	2.052	15.26
	46800	-8552.719	-415.955	4.725	2.056	15.32
	47000	-8566.795	-411.072	4.740	2.061	15.40
	47200	-8569.611	-408.630	4.739	2.065	15.46
	47400	-8578.056	-405.273	4.741	2.070	15.52
	47600	-8580.872	-399.780	4.742	2.075	15.60
	47800	-8566.795	-396.118	4.737	2.079	15.66
	48000	-8566.795	-393.982	4.759	2.080	15.72
	48200	-8563.980	-390.015	4.766	2.078	15.79
	48400	-8541.458	-387.573	4.759	2.081	15.86
	48600	-8530.197	-384.827	4.733	2.086	15.92
	48800	-8524.567	-382.385	4.732	2.081	15.98
	49000	-8502.045	-379.944	4.779	2.087	16.06
	49200	-8482.338	-376.282	4.820	2.101	16.12
	49400	-8476.707	-372.925	4.802	2.111	16.18
	49600	-8448.555	-368.958	4.756	2.104	16.26
	49800	-8423.218	-364.685	4.807	2.110	16.32
	50000	-8406.326	-360.107	4.776	2.119	16.39
	50200	-8383.804	-356.750	4.775	2.117	16.45
	50400	-8355.652	-353.699	4.806	2.123	16.52
	50600	-8330.315	-353.394	4.804	2.124	16.58
	50800	-8319.054	-353.699	4.792	2.123	16.64
	51000	-8285.271	-351.257	4.729	2.114	16.72
	51200	-8257.118	-348.816	4.745	2.106	16.78
	51400	-8234.596	-347.290	4.751	2.103	16.84
	51600	-8206.444	-346.985	4.702	2.094	16.92
	51800	-8175.476	-344.849	4.755	2.098	16.98
	52000	-8150.139	-343.628	4.755	2.108	17.05
	52200	-8121.986	-341.187	4.830	2.118	17.11
	52400	-8079.758	-340.881	4.810	2.125	17.18
	52600	-8057.236	-340.271	4.806	2.130	17.24
	52800	-8034.714	-340.271	4.791	2.132	17.30
	53000	-8003.746	-335.083	4.810	2.132	17.38
	53200	-7981.224	-332.642	4.784	2.130	17.44
	53400	-7955.887	-331.116	4.786	2.128	17.50
	53600	-7938.995	-331.116	4.768	2.126	17.58
	53800	-7902.397	-331.116	4.780	2.125	17.64
	54000	-7879.875	-332.947	4.785	2.127	17.70
	54200	-7862.984	-332.336	4.777	2.127	17.77
	54400	-7834.831	-331.421	4.782	2.126	17.84
	54600	-7806.679	-329.590	4.729	2.113	17.90
	54800	-7789.787	-328.979	4.734	2.108	17.96
	55000	-7767.265	-328.674	4.735	2.102	18.04
	55200	-7739.113	-330.505	4.720	2.097	18.10
	55400	-7716.591	-334.473	4.726	2.091	18.16
	55600	-7696.884	-335.083	4.731	2.093	18.24
	55800	-7660.286	-335.083	4.718	2.093	18.30
	56000	-7629.318	-336.609	4.715	2.090	18.36
	56200	-7598.351	-338.135	4.703	2.081	18.43
	56400	-7573.013	-338.745	4.710	2.083	18.50
	56600	-7533.600	-339.966	4.715	2.078	18.56
	56800	-7494.186	-340.271	4.679	2.074	18.62
	57000	-7471.664	-340.881	4.688	2.072	18.70
	57200	-7437.881	-342.712	4.661	2.065	18.76
	57400	-7401.283	-344.238	4.647	2.055	18.82
	57600	-7378.761	-346.680	4.653	2.053	18.90
	57800	-7350.609	-350.647	4.661	2.043	18.96
	58000	-7314.011	-354.614	4.587	2.035	19.02
	58200	-7288.673	-357.056	4.561	2.017	19.09
	58400	-7257.706	-359.497	4.564	2.009	19.16
	58600	-7218.292	-361.023	4.565	2.003	19.22
	58800	-7178.879	-364.685	4.620	2.003	19.28
	59000	-7150.726	-368.958	4.641	2.014	19.36
	59200	-7111.313	-371.704	4.645	2.020	19.42
	59400	-7074.715	-372.925	4.639	2.017	19.48
	59600	-7043.747	-374.756	4.589	2.009	19.56
	59800	-7015.594	-379.028	4.596	2.003	19.62
	60000	-6973.366	-383.911	4.591	1.995	19.68
	60200	-6939.583	-387.878	4.582	1.987	19.75
	60400	-6908.615	-392.761	4.600	1.983	19.82
	60600	-6863.571	-397.644	4.608	1.985	19.88
	60800	-6829.788	-401.917	4.540	1.981	19.94
	61000	-6801.636	-405.579	4.521	1.962	20.02
	61200	-6762.222	-409.546	4.560	1.954	20.08
	61400	-6722.809	-414.124	4.560	1.951	20.14
	61600	-6694.656	-414.734	4.522	1.944	20.22
	61800	-6655.243	-416.565	4.486	1.932	20.28
	62000	-6610.199	-418.701	4.521	1.937	20.34
	62200	-6576.416	-422.363	4.506	1.930	20.41
	62400	-6548.264	-426.636	4.546	1.925	20.48
	62600	-6514.481	-433.044	4.500	1.922	20.54
	62800	-6475.067	-437.622	4.524	1.915	20.60
	63000	-6432.838	-440.063	4.600	1.919	20.68
	63200	-6396.240	-446.472	4.550	1.923	20.74
	63400	-6345.566	-453.491	4.494	1.903	20.80
	63600	-6308.968	-458.984	4.493	1.890	20.88
	63800	-6280.815	-464.478	4.455	1.874	20.94
	64000	-6241.402	-467.224	4.314	1.854	21.00
	64200	-6190.727	-469.666	4.272	1.813	21.07
	64400	-6156.944	-472.412	4.300	1.789	21.14
	64600	-6103.455	-476.685	4.270	1.785	21.20
	64800	-6058.411	-479.126	4.294	1.781	21.26
	65000	-6021.812	-480.652	4.399	1.793	21.34
	65200	-5979.584	-482.483	4.410	1.807	21.40
	65400	-5926.094	-484.314	4.404	1.813	21.46
	65600	-5886.681	-485.535	4.375	1.811	21.54
	65800	-5850.082	-487.976	4.373	1.804	21.60
	66000	-5796.593	-489.197	4.383	1.801	21.66
	66200	-5765.625	-492.554	4.406	1.802	21.73
	66400	-5731.842	-496.826	4.384	1.806	21.80
	66600	-5692.429	-500.488	4.387	1.802	21.86
	66800	-5661.461	-503.235	4.395	1.795	21.92
	67000	-5630.493	-505.371	4.403	1.794	22.00
	67200	-5596.710	-509.033	4.388	1.790	22.06
	67400	-5560.112	-513.916	4.398	1.786	22.12
	67600	-5526.329	-519.104	4.385	1.784	22.20
	67800	-5503.807	-518.494	4.376	1.780	22.26
	68000	-5470.024	-520.020	4.423	1.781	22.32
	68200	-5439.056	-522.156	4.398	1.779	22.39
	68400	-5416.534	-522.461	4.379	1.777	22.46
	68600	-5391.197	-520.935	4.366	1.772	22.52
	68800	-5368.675	-521.545	4.385	1.763	22.58
	69000	-5360.229	-523.987	4.359	1.757	22.66
	69200	-5348.969	-525.513	4.354	1.752	22.72
	69400	-5320.816	-526.733	4.354	1.750	22.78
	69600	-5301.109	-529.785	4.377	1.752	22.86
	69800	-5292.664	-531.616	4.385	1.754	22.92
	70000	-5270.142	-532.532	4.393	1.757	22.98
	70200	-5241.989	-532.227	4.397	1.760	23.06
	70400	-5233.543	-530.701	4.382	1.760	23.12
	70600	-5208.206	-531.616	4.402	1.763	23.18
	70800	-5174.423	-531.616	4.375	1.763	23.24
	71000	-5146.271	-533.447	4.418	1.766	23.32
	71200	-5135.010	-533.142	4.440	1.771	23.38
	71400	-5109.673	-530.701	4.444	1.776	23.44
	71600	-5084.335	-529.175	4.436	1.775	23.52
	71800	-5064.629	-526.123	4.465	1.780	23.58
	72000	-5047.737	-524.292	4.472	1.783	23.64
	72200	-5028.030	-523.071	4.460	1.784	23.71
	72400	-5005.508	-521.851	4.450	1.780	23.78
	72600	-4985.802	-521.851	4.436	1.779	23.84
	72800	-4966.095	-520.325	4.434	1.775	23.90
	73000	-4937.943	-519.409	4.451	1.769	23.98
	73200	-4923.866	-518.188	4.433	1.768	24.04
	73400	-4915.421	-520.325	4.402	1.765	24.10
	73600	-4887.268	-520.325	4.415	1.763	24.18
	73800	-4861.931	-520.020	4.376	1.757	24.24
	74000	-4845.039	-517.883	4.386	1.754	24.30
	74200	-4830.963	-516.357	4.380	1.751	24.37
	74400	-4802.811	-515.137	4.373	1.747	24.44
	74600	-4774.658	-516.357	4.376	1.743	24.50
	74800	-4763.397	-514.526	4.352	1.740	24.57
	75000	-4740.875	-515.442	4.378	1.742	24.64
	75200	-4712.723	-518.494	4.408	1.747	24.70
	75400	-4707.092	-519.409	4.459	1.755	24.76
	75600	-4684.570	-517.273	4.471	1.767	24.84
	75800	-4659.233	-513.306	4.462	1.774	24.90
	76000	-4631.081	-509.644	4.469	1.774	24.96
	76200	-4628.265	-508.423	4.435	1.773	25.03
	76400	-4608.559	-507.202	4.415	1.769	25.10
	76600	-4588.852	-502.625	4.427	1.769	25.16
	76800	-4583.221	-499.878	4.405	1.767	25.22
	77000	-4608.559	-497.742	4.448	1.769	25.30
	77200	-4619.820	-496.521	4.449	1.777	25.36
	77400	-4645.157	-494.995	4.479	1.776	25.42
	77600	-4687.386	-494.080	4.452	1.773	25.50
	77800	-4723.984	-493.774	4.447	1.782	25.56
	78000	-4760.582	-492.859	4.427	1.783	25.62
	78200	-4814.072	-494.080	4.416	1.783	25.69
	78400	-4864.746	-494.995	4.414	1.781	25.76
	78600	-4909.790	-494.995	4.378	1.772	25.82
	78800	-4957.649	-494.995	4.388	1.771	25.88
	79000	-5011.139	-494.385	4.424	1.769	25.96
	79200	-5050.552	-493.469	4.429	1.773	26.02
	79400	-5112.488	-494.080	4.442	1.780	26.08
	79600	-5165.977	-494.995	4.402	1.779	26.16
	79800	-5227.913	-495.911	4.413	1.779	26.22
	80000	-5270.142	-495.300	4.456	1.786	26.28
	80200	-5326.447	-494.995	4.420	1.788	26.35
	80400	-5382.751	-493.469	4.457	1.790	26.42
	80600	-5433.426	-491.943	4.450	1.801	26.48
	80800	-5515.068	-492.859	4.473	1.798	26.54
	81000	-5630.493	-494.690	4.417	1.804	26.62
	81200	-5748.734	-497.131	4.451	1.806	26.68
	81400	-5844.452	-499.573	4.504	1.815	26.74
	81600	-5934.540	-504.456	4.482	1.820	26.82
	81800	-6030.258	-508.728	4.486	1.822	26.88
	82000	-6106.270	-507.202	4.495	1.827	26.94
	82200	-6182.281	-507.202	4.495	1.832	27.02
	82400	-6258.293	-507.202	4.497	1.833	27.08
	82600	-6334.305	-510.254	4.494	1.830	27.14
	82800	-6379.349	-512.085	4.483	1.837	27.21
	83000	-6435.654	-510.559	4.473	1.834	27.28
	83200	-6500.404	-509.033	4.474	1.837	27.34
	83400	-6551.079	-506.287	4.483	1.843	27.40
	83600	-6598.938	-503.845	4.478	1.846	27.48
	83800	-6652.428	-502.319	4.474	1.844	27.54
	84000	-6705.917	-504.150	4.507	1.850	27.60
	84200	-6776.299	-506.287	4.488	1.854	27.68
	84400	-6888.908	-507.812	4.467	1.856	27.74
	84600	-7007.149	-508.118	4.492	1.859	27.80
	84800	-7108.498	-509.644	4.500	1.863	27.86
	85000	-7187.325	-509.033	4.464	1.862	27.94
	85200	-7274.597	-507.202	4.482	1.861	28.00
	85400	-7350.609	-505.981	4.458	1.863	28.06
	85600	-7412.544	-509.338	4.427	1.857	28.14
	85800	-7474.480	-510.254	4.377	1.844	28.20
	86000	-7550.491	-504.761	4.359	1.835	28.26
	86200	-7601.166	-496.521	4.458	1.838	28.33
	86400	-7725.037	-494.690	4.394	1.845	28.40
	86600	-7967.148	-492.859	4.477	1.855	28.46
	86800	-8178.291	-496.216	4.499	1.877	28.53
	87000	-8350.021	-502.930	4.501	1.889	28.60
	87200	-8592.133	-508.728	4.521	1.899	28.66
	87400	-8837.059	-514.221	4.558	1.913	28.72
	87600	-9087.616	-520.630	4.541	1.913	28.80
	87800	-9338.173	-528.259	4.512	1.919	28.86
	88000	-9602.806	-534.973	4.561	1.924	28.92
	88200	-9875.885	-542.297	4.536	1.926	29.00
	88400	-10134.888	-549.011	4.542	1.936	29.06
	88600	-10388.260	-557.556	4.547	1.941	29.12
	88800	-10647.263	-565.186	4.537	1.943	29.18
	89000	-10878.113	-571.594	4.540	1.948	29.26
	89200	-11080.811	-575.867	4.572	1.954	29.32
	89400	-11275.063	-581.055	4.712	1.978	29.38
	89600	-11483.391	-586.548	4.685	1.984	29.46
	89800	-11674.828	-591.736	4.783	2.004	29.52
	90000	-11855.003	-597.534	4.802	2.042	29.58
	90200	-12032.364	-602.722	4.807	2.059	29.66
	90400	-12206.909	-609.741	4.821	2.070	29.72
	90600	-12384.270	-615.234	4.650	2.065	29.78
	90800	-12556.000	-618.286	4.555	2.023	29.85
	91000	-12738.991	-621.033	4.754	2.010	29.92
	91200	-12938.873	-624.695	4.775	2.023	29.98
	91400	-13158.463	-631.104	4.631	2.038	30.04
	91600	-13355.530	-636.597	4.635	2.027	30.12
	91800	-13546.967	-641.174	4.596	2.021	30.18
	92000	-13735.588	-646.973	4.635	2.019	30.24
	92200	-13915.764	-653.992	4.659	2.023	30.32
	92400	-14081.863	-659.485	4.633	2.029	30.38
	92600	-14245.148	-665.588	4.655	2.031	30.44
	92800	-14411.247	-669.861	4.648	2.029	30.51
	93000	-14577.347	-675.964	4.657	2.034	30.58
	93200	-14732.185	-682.068	4.653	2.035	30.64
	93400	-14872.948	-687.256	4.645	2.039	30.70
	93600	-15022.156	-691.223	4.649	2.039	30.78
	93800	-15165.733	-695.190	4.683	2.044	30.84
	94000	-15300.865	-700.378	4.662	2.050	30.90
	94200	-15419.106	-705.261	4.671	2.052	30.97
	94400	-15554.237	-711.060	4.663	2.059	31.04
	94600	-15709.076	-712.891	4.683	2.062	31.10
	94800	-15855.469	-715.942	4.688	2.068	31.17
	95000	-16024.384	-719.910	4.648	2.063	31.24
	95200	-16215.820	-723.877	4.637	2.060	31.30
	95400	-16387.550	-729.675	4.548	2.040	31.36
	95600	-16536.758	-735.779	4.542	2.026	31.44
	95800	-16669.075	-742.798	4.549	2.020	31.50
	96000	-16809.837	-748.596	4.512	2.012	31.56
	96200	-16956.230	-755.615	4.518	2.010	31.64
	96400	-17082.916	-764.771	4.550	2.018	31.70
	96600	-17201.157	-771.179	4.558	2.025	31.76
	96800	-17308.136	-776.367	4.583	2.030	31.83
	97000	-17412.300	-780.945	4.570	2.027	31.90
	97200	-17527.725	-788.269	4.564	2.018	31.96
	97400	-17620.628	-793.152	4.558	2.017	32.02
	97600	-17707.901	-796.204	4.544	2.016	32.10
	97800	-17797.989	-800.476	4.543	2.015	32.16
	98000	-17888.077	-805.054	4.576	2.021	32.22
	98200	-17983.795	-808.716	4.609	2.031	32.30
	98400	-18076.698	-810.242	4.564	2.036	32.36
	98600	-18163.971	-808.716	4.547	2.031	32.42
	98800	-18254.059	-808.411	4.570	2.031	32.49
	99000	-18344.147	-811.768	4.548	2.030	32.56
	99200	-18425.789	-818.176	4.533	2.031	32.62
	99400	-18518.692	-824.890	4.557	2.027	32.68
	99600	-18603.149	-830.688	4.583	2.030	32.76
	99800	-18687.607	-837.097	4.578	2.036	32.82
	100000	-18803.032	-844.116	4.616	2.043	32.88
	100200	-18904.381	-851.135	4.597	2.045	32.96
	100400	-18983.208	-859.070	4.586	2.043	33.02
	100600	-19112.709	-863.953	4.590	2.043	33.08
	100800	-19230.949	-868.225	4.594	2.041	33.15
	101000	-19332.298	-872.498	4.669	2.049	33.22
	101200	-19428.017	-878.601	4.673	2.062	33.28
	101400	-19512.474	-882.568	4.669	2.067	33.34
	101600	-19599.747	-887.146	4.678	2.072	33.42
	101800	-19689.835	-889.587	4.669	2.076	33.48
	102000	-19765.846	-892.944	4.677	2.079	33.54
	102200	-19855.934	-895.996	4.696	2.078	33.62
	102400	-19926.315	-899.658	4.691	2.081	33.68
	102600	-19996.696	-903.320	4.687	2.083	33.74
	102800	-20072.708	-912.476	4.309	2.074	33.81
	103000	-20151.535	-921.631	3.802	1.918	33.88
	103200	-20221.916	-928.650	2.622	1.604	33.94
	103400	-20323.265	-928.040	2.906	1.431	34.01
	103600	-20421.799	-928.040	3.026	1.393	34.08
	103800	-20517.517	-932.007	3.007	1.393	34.14
	104000	-20649.834	-938.110	2.947	1.378	34.20
	104200	-20787.781	-942.688	3.003	1.368	34.28
	104400	-20900.391	-947.266	3.145	1.395	34.34
	104600	-21058.044	-954.285	3.065	1.416	34.40
	104800	-21198.807	-961.609	2.944	1.398	34.47
	105000	-21311.417	-968.628	2.962	1.373	34.53
	105200	-21407.135	-974.121	3.077	1.382	34.60
	105400	-21505.669	-981.140	3.160	1.407	34.66
	105600	-21590.126	-985.413	3.288	1.450	34.74
	105800	-21677.399	-991.211	3.298	1.475	34.80
	106000	-21767.487	-997.925	3.245	1.484	34.86
	106200	-21874.466	-1005.249	3.252	1.475	34.94
	106400	-21973.000	-1009.216	3.352	1.492	35.00
	106600	-22060.272	-1012.573	3.325	1.508	35.06
	106800	-22161.621	-1015.015	3.334	1.519	35.13
	107000	-22251.709	-1018.982	3.135	1.490	35.20
	107200	-22330.536	-1021.423	3.156	1.463	35.26
	107400	-22400.917	-1026.001	3.203	1.464	35.33
	107600	-22460.037	-1029.663	3.239	1.469	35.40
	107800	-22527.603	-1032.715	3.274	1.486	35.46
	108000	-22597.984	-1036.682	3.246	1.488	35.52
	108200	-22676.811	-1041.565	3.235	1.495	35.60
	108400	-22724.670	-1044.312	3.230	1.488	35.66
	108600	-22772.530	-1047.974	3.279	1.487	35.72
	108800	-22811.943	-1050.415	3.264	1.497	35.79
	109000	-22856.987	-1053.467	3.307	1.505	35.85
	109200	-22904.846	-1055.908	3.305	1.506	35.92
	109400	-22938.629	-1055.908	3.269	1.499	35.98
	109600	-22961.151	-1058.655	3.222	1.489	36.06
	109800	-22992.119	-1061.707	3.145	1.469	36.12
	110000	-23020.271	-1065.369	3.174	1.459	36.18
	110200	-23045.609	-1065.979	3.257	1.470	36.26
	110400	-23070.946	-1068.420	3.208	1.472	36.32
	110600	-23079.391	-1069.031	3.199	1.465	36.38
	110800	-23076.576	-1069.641	3.257	1.466	36.45
	111000	-23090.652	-1070.251	3.376	1.488	36.52
	111200	-23096.283	-1071.472	3.288	1.505	36.58
	111400	-23104.729	-1071.472	3.251	1.499	36.65
	111600	-23101.913	-1071.777	3.307	1.495	36.72
	111800	-23101.913	-1072.388	3.319	1.496	36.78
	112000	-23085.022	-1072.693	3.302	1.504	36.84
	112200	-23062.500	-1070.862	3.198	1.493	36.92
	112400	-23051.239	-1069.336	3.136	1.465	36.98
	112600	-23034.348	-1067.200	3.121	1.445	37.04
	112800	-23020.271	-1065.369	3.141	1.436	37.11
	113000	-23000.565	-1064.758	3.140	1.435	37.17
	113200	-22966.782	-1063.843	3.148	1.439	37.24
	113400	-22924.553	-1064.148	3.239	1.452	37.30
	113600	-22890.770	-1065.063	3.156	1.451	37.38
	113800	-22845.726	-1063.232	3.141	1.446	37.44
	114000	-22803.497	-1061.096	3.113	1.427	37.51
	114200	-22758.453	-1059.265	3.127	1.433	37.58
	114400	-22710.594	-1057.434	3.103	1.430	37.64
	114600	-22654.289	-1054.993	3.194	1.439	37.70
	114800	-22583.908	-1054.077	3.157	1.438	37.77
	115000	-22516.342	-1050.720	3.124	1.442	37.84
	115200	-22443.146	-1049.805	3.043	1.422	37.90
	115400	-22381.210	-1047.974	3.034	1.404	37.97
	115600	-22305.199	-1045.532	3.049	1.398	38.03
	115800	-22226.372	-1041.870	3.066	1.399	38.10
	116000	-22136.284	-1038.513	2.997	1.390	38.16
	116200	-22043.381	-1034.241	3.016	1.381	38.24
	116400	-21927.956	-1031.189	3.052	1.393	38.30
	116600	-21818.161	-1025.391	3.143	1.405	38.36
	116800	-21702.736	-1018.372	3.156	1.422	38.43
	117000	-21587.311	-1012.573	3.172	1.438	38.49
	117200	-21452.179	-1009.216	3.111	1.432	38.56
	117400	-21325.493	-1004.944	3.128	1.425	38.62
	117600	-21193.176	-999.146	3.097	1.421	38.70
	117800	-21074.936	-993.042	3.165	1.424	38.76
	118000	-20948.250	-988.770	3.234	1.443	38.83
	118200	-20827.194	-987.549	3.165	1.445	38.90
	118400	-20720.215	-982.971	3.219	1.447	38.96
	118600	-20601.974	-979.309	3.271	1.464	39.02
	118800	-20506.256	-975.647	3.297	1.476	39.09
	119000	-20390.831	-972.290	3.265	1.479	39.16
	119200	-20275.406	-969.238	3.270	1.475	39.22
	119400	-20154.350	-963.440	3.302	1.486	39.28
	119600	-20030.479	-955.811	3.306	1.490	39.35
	119800	-19909.424	-949.097	3.227	1.481	39.42
	120000	-19793.999	-944.214	3.324	1.483	39.48
	120200	-19675.758	-941.162	3.329	1.495	39.56
	120400	-19565.964	-935.974	3.275	1.491	39.62
	120600	-19444.908	-930.786	3.246	1.482	39.68
	120800	-19312.592	-924.377	3.323	1.480	39.75
	121000	-19177.460	-919.495	3.303	1.488	39.82
	121200	-19042.328	-915.527	3.223	1.487	39.88
	121400	-18904.381	-908.203	3.246	1.475	39.94
	121600	-18766.434	-901.184	3.234	1.469	40.02
	121800	-18628.487	-894.470	3.258	1.470	40.08
	122000	-18493.355	-888.977	3.286	1.481	40.15
	122200	-18358.223	-881.958	3.340	1.491	40.22
	122400	-18231.537	-873.413	3.361	1.501	40.28
	122600	-18090.775	-867.004	3.349	1.512	40.34
	122800	-17955.643	-859.985	3.345	1.508	40.41
	123000	-17826.141	-853.271	3.393	1.516	40.48
	123200	-17691.010	-846.252	3.339	1.515	40.54
	123400	-17561.508	-838.928	3.384	1.514	40.60
	123600	-17432.007	-831.604	3.404	1.528	40.67
	123800	-17308.136	-824.585	3.465	1.545	40.74
	124000	-17189.896	-817.871	3.468	1.544	40.80
	124200	-17077.286	-812.683	3.431	1.548	40.88
	124400	-16956.230	-807.800	3.533	1.558	40.94
	124600	-16835.175	-802.002	3.528	1.577	41.00
	124800	-16714.119	-796.509	3.506	1.580	41.07
	125000	-16607.140	-791.626	3.452	1.569	41.14
	125200	-16486.084	-785.828	3.445	1.560	41.20
	125400	-16370.659	-780.029	3.463	1.559	41.26
	125600	-16266.495	-774.231	3.499	1.567	41.34
	125800	-16156.700	-765.991	4.074	1.808	41.40
	126000	-16055.351	-764.771	3.393	1.877	41.46
	126200	-15956.818	-757.751	3.517	1.691	41.54
	126400	-15855.469	-752.258	3.522	1.630	41.60
	126600	-15751.305	-744.934	3.488	1.605	41.66
	126800	-15649.956	-737.000	3.236	1.539	41.73
	127000	-15551.422	-730.896	3.217	1.501	41.80
	127200	-15455.704	-724.182	3.318	1.484	41.86
	127400	-15345.909	-718.689	3.282	1.486	41.92
	127600	-15250.191	-712.585	3.353	1.497	42.00
	127800	-15162.918	-709.534	3.455	1.532	42.06
	128000	-15067.200	-704.041	3.457	1.546	42.12
	128200	-14974.297	-698.547	3.554	1.558	42.20
	128400	-14895.470	-693.665	3.598	1.595	42.26
	128600	-14808.197	-692.749	3.625	1.621	42.32
	128800	-14720.924	-691.528	3.551	1.621	42.39
	129000	-14633.652	-687.561	3.613	1.619	42.46
	129200	-14540.749	-682.068	3.564	1.627	42.52
	129400	-14450.661	-674.744	3.545	1.612	42.58
	129600	-14369.019	-667.114	3.608	1.610	42.66
	129800	-14284.561	-661.621	3.505	1.611	42.72
	130000	-14202.919	-655.823	3.454	1.586	42.78
	130200	-14126.907	-650.635	3.401	1.577	42.86
	130400	-14048.080	-647.278	3.445	1.570	42.92
	130600	-13974.884	-642.700	3.411	1.566	42.98
	130800	-13890.427	-637.512	3.326	1.549	43.05
	131000	-13817.230	-632.019	3.414	1.547	43.12
	131200	-13741.219	-627.441	3.485	1.564	43.18
	131400	-13659.576	-623.169	3.470	1.571	43.24
	131600	-13577.934	-621.033	3.404	1.560	43.32
	131800	-13501.923	-617.676	3.500	1.564	43.38
	132000	-13431.541	-614.319	3.545	1.574	43.44
	132200	-13366.791	-609.741	3.569	1.597	43.52
	132400	-13293.594	-606.689	3.671	1.629	43.58
	132600	-13223.213	-604.858	3.660	1.642	43.64
	132800	-13150.017	-600.891	3.862	1.662	43.71
	133000	-13076.820	-598.755	3.813	1.705	43.78
	133200	-13003.624	-594.177	3.857	1.713	43.84
	133400	-12933.243	-590.210	3.856	1.713	43.90
	133600	-12860.046	-588.074	3.777	1.714	43.98
	133800	-12795.296	-584.412	3.773	1.700	44.04
	134000	-12736.176	-580.139	3.676	1.690	44.10
	134200	-12677.055	-575.256	3.693	1.674	44.18
	134400	-12606.674	-570.068	3.911	1.702	44.24
	134600	-12541.924	-568.237	3.629	1.692	44.30
	134800	-12474.358	-562.744	3.807	1.687	44.37
	135000	-12409.607	-558.472	3.887	1.718	44.44
	135200	-12342.041	-555.420	3.797	1.725	44.50
	135400	-12280.106	-551.758	3.746	1.714	44.56
	135600	-12215.355	-547.791	3.763	1.703	44.64
	135800	-12159.050	-545.349	3.700	1.693	44.70
	136000	-12094.299	-541.687	3.681	1.675	44.76
	136200	-12035.179	-538.940	3.692	1.670	44.84
	136400	-11981.689	-535.583	3.684	1.670	44.90
	136600	-11922.569	-534.058	3.741	1.678	44.96
	136800	-11866.264	-534.363	3.734	1.686	45.03
	137000	-11812.775	-533.752	3.723	1.689	45.10
	137200	-11748.024	-530.090	3.731	1.686	45.16
	137400	-11688.904	-524.597	3.775	1.693	45.22
	137600	-11629.784	-520.325	3.794	1.703	45.30
	137800	-11584.740	-516.052	3.836	1.713	45.36
	138000	-11528.435	-512.390	3.804	1.714	45.42
	138200	-11483.391	-511.475	3.828	1.717	45.50
	138400	-11427.086	-510.559	3.775	1.710	45.56
	138600	-11373.596	-508.728	3.778	1.707	45.62
	138800	-11320.107	-506.287	3.851	1.707	45.69
	139000	-11263.802	-505.981	4.146	1.771	45.76
	139200	-11215.942	-504.456	4.110	1.827	45.82
	139400	-11154.007	-501.099	4.225	1.849	45.88
	139600	-11111.778	-500.183	4.103	1.854	45.96
	139800	-11159.637	-499.268	4.031	1.846	46.02
	140000	-11235.649	-499.268	4.076	1.841	46.08
	140200	-11280.693	-498.962	4.020	1.830	46.16
	140400	-11294.769	-498.962	3.976	1.803	46.22
	140600	-11300.400	-498.657	4.194	1.801	46.28
	140800	-11291.954	-501.099	4.241	1.855	46.35
	141000	-11283.508	-502.319	4.376	1.897	46.42
	141200	-11272.247	-502.625	4.195	1.901	46.48
	141400	-11258.171	-501.404	4.186	1.888	46.54
	141600	-11244.095	-500.793	4.176	1.880	46.62
	141800	-11221.573	-498.657	4.164	1.867	46.68
	142000	-11207.497	-497.437	4.205	1.869	46.74
	142200	-11190.605	-497.131	4.203	1.873	46.82
	142400	-11170.898	-497.437	4.215	1.877	46.88
	142600	-11154.007	-498.047	4.232	1.881	46.94
	142800	-11128.670	-497.742	4.189	1.878	47.01
	143000	-11108.963	-497.131	4.013	1.855	47.08
	143200	-11077.995	-497.131	4.091	1.844	47.14
	143400	-11049.843	-495.300	4.069	1.826	47.20
	143600	-11024.506	-494.080	4.083	1.825	47.28
	143800	-11001.984	-493.469	4.076	1.825	47.34
	144000	-10971.016	-491.638	4.134	1.834	47.40
	144200	-10945.679	-490.723	4.084	1.824	47.48
	144400	-10925.972	-488.892	4.085	1.829	47.54
	144600	-10900.635	-488.586	4.010	1.822	47.60
	144800	-10869.667	-487.976	3.994	1.815	47.67
	145000	-10835.884	-488.281	3.925	1.788	47.74
	145200	-10807.732	-487.366	3.877	1.772	47.80
	145400	-10779.579	-487.671	3.919	1.754	47.86
	145600	-10751.427	-486.755	3.893	1.750	47.94
	145800	-10717.644	-485.229	3.854	1.738	48.00
	146000	-10714.828	-484.314	3.914	1.734	48.06
	146200	-10785.210	-486.755	3.926	1.744	48.14
	146400	-10835.884	-489.197	3.902	1.746	48.20
	146600	-10855.591	-491.943	3.840	1.738	48.26
	146800	-10864.037	-492.554	3.803	1.723	48.33
	147000	-10855.591	-492.554	3.795	1.710	48.40
	147200	-10855.591	-494.080	3.774	1.703	48.46
	147400	-10847.145	-493.774	3.838	1.710	48.52
	147600	-10838.699	-494.080	3.896	1.719	48.60
	147800	-10818.993	-494.995	3.893	1.734	48.66
	148000	-10807.732	-496.521	3.952	1.751	48.72
	148200	-10796.471	-496.826	3.932	1.750	48.80
	148400	-10788.025	-496.216	3.935	1.754	48.86
	148600	-10765.503	-497.131	3.856	1.744	48.92
	148800	-10765.503	-496.521	3.882	1.749	48.99
	149000	-10759.872	-495.605	3.877	1.739	49.06
	149200	-10751.427	-495.300	3.890	1.741	49.12
	149400	-10737.350	-494.385	3.849	1.732	49.18
	149600	-10731.720	-493.469	3.933	1.739	49.26
	149800	-10709.198	-495.300	3.878	1.732	49.32
	150000	-10692.307	-495.300	3.827	1.722	49.38
	150200	-10681.046	-495.300	3.888	1.732	49.46
	150400	-10669.785	-494.385	3.930	1.772	49.52
	150600	-10658.524	-492.249	3.987	1.772	49.58
	150800	-10759.872	-493.469	3.968	1.766	49.65
	151000	-10838.699	-495.300	3.893	1.749	49.72
	151200	-10900.635	-498.657	3.875	1.743	49.78
	151400	-10940.048	-501.099	3.940	1.745	49.84
	151600	-10968.201	-503.845	3.950	1.750	49.92
	151800	-10993.538	-506.897	3.941	1.751	49.98
	152000	-11018.875	-509.644	3.878	1.743	50.04
	152200	-11035.767	-511.169	3.926	1.733	50.12
	152400	-11066.734	-513.306	3.896	1.742	50.18
	152600	-11097.702	-514.526	3.923	1.736	50.24
	152800	-11131.485	-516.052	3.848	1.726	50.31
	153000	-11215.942	-517.273	3.836	1.719	50.38
	153200	-11314.476	-521.545	3.806	1.710	50.44
	153400	-11384.857	-525.513	3.932	1.722	50.50
	153600	-11458.054	-529.480	4.030	1.754	50.58
	153800	-11573.479	-534.058	4.039	1.778	50.64
	154000	-11714.241	-540.466	4.107	1.797	50.70
	154200	-11826.851	-545.959	4.116	1.818	50.78
	154400	-11922.569	-552.063	4.131	1.825	50.84
	154600	-11990.135	-560.608	4.084	1.830	50.90
	154800	-12049.255	-568.237	4.008	1.808	50.97
	155000	-12105.560	-568.542	4.052	1.801	51.04
	155200	-12159.050	-567.932	4.144	1.822	51.10
	155400	-12204.094	-566.711	4.084	1.825	51.16
	155600	-12240.692	-565.796	4.004	1.810	51.24
	155800	-12285.736	-565.491	3.983	1.785	51.30
	156000	-12325.150	-565.796	3.953	1.776	51.36
	156200	-12358.932	-570.068	3.940	1.766	51.44
	156400	-12384.270	-573.120	3.973	1.766	51.50
	156600	-12468.727	-574.646	3.994	1.773	51.56
	156800	-12634.827	-577.698	3.952	1.772	51.63
	157000	-12761.513	-581.055	3.884	1.755	51.70
	157200	-12865.677	-585.022	3.892	1.738	51.76
	157400	-12964.211	-589.294	3.929	1.745	51.82
	157600	-13068.375	-594.177	3.827	1.727	51.90
	157800	-13161.278	-597.839	3.830	1.720	51.96
	158000	-13248.550	-601.807	3.771	1.707	52.02
	158200	-13375.237	-606.384	3.771	1.697	52.10
	158400	-13527.260	-611.877	3.684	1.679	52.16
	158600	-13648.315	-617.676	3.736	1.671	52.22
	158800	-13760.925	-625.305	3.715	1.671	52.29
	159000	-13839.752	-633.240	3.709	1.665	52.36
	159200	-13997.406	-638.123	3.727	1.666	52.42
	159400	-14163.506	-643.005	3.735	1.668	52.48
	159600	-14298.637	-650.330	3.748	1.677	52.56
	159800	-14416.878	-656.433	3.766	1.681	52.62
	160000	-14591.423	-658.875	3.742	1.687	52.68
	160200	-14746.262	-660.095	3.769	1.689	52.76
	160400	-14878.578	-660.706	3.873	1.711	52.82
	160600	-14994.003	-664.978	3.893	1.732	52.88
	160800	-15095.352	-671.692	3.870	1.739	52.95
	161000	-15191.071	-676.880	3.898	1.743	53.02
	161200	-15281.158	-682.068	3.920	1.749	53.08
	161400	-15354.355	-685.730	3.930	1.754	53.14
	161600	-15416.290	-688.477	3.900	1.753	53.22
	161800	-15478.226	-692.139	3.927	1.751	53.28
	162000	-15526.085	-696.106	3.900	1.748	53.34
	162200	-15618.988	-699.768	3.961	1.760	53.42
	162400	-15720.337	-703.430	3.933	1.769	53.48
	162600	-15855.469	-708.618	3.921	1.764	53.54
	162800	-15990.601	-712.280	3.925	1.763	53.61
	163000	-16136.993	-719.299	3.926	1.760	53.68
	163200	-16274.940	-729.675	3.955	1.762	53.74
	163400	-16379.105	-739.136	3.943	1.766	53.80
	163600	-16469.193	-744.019	3.994	1.769	53.88
	163800	-16542.389	-746.765	3.971	1.780	53.94
	164000	-16595.879	-749.512	3.978	1.786	54.00
	164200	-16649.368	-751.648	3.958	1.787	54.08
	164400	-16694.412	-753.174	3.955	1.785	54.14
	164600	-16725.380	-754.089	3.827	1.766	54.20
	164800	-16826.729	-753.784	3.973	1.761	54.27
	165000	-16922.447	-756.531	4.009	1.779	54.34
	165200	-17001.274	-759.583	4.026	1.787	54.40
	165400	-17074.471	-763.550	3.967	1.787	54.46
	165600	-17122.330	-767.517	4.030	1.793	54.54
	165800	-17167.374	-769.653	4.042	1.801	54.60
	166000	-17195.526	-772.400	4.045	1.801	54.66
	166200	-17206.787	-775.757	4.018	1.797	54.74
	166400	-17220.863	-778.198	3.986	1.790	54.80
	166600	-17223.679	-779.419	3.994	1.796	54.86
	166800	-17229.309	-780.334	3.915	1.784	54.93
	167000	-17212.418	-778.809	4.087	1.794	55.00
	167200	-17201.157	-779.114	4.072	1.811	55.06
	167400	-17187.080	-778.809	4.213	1.830	55.12
	167600	-17173.004	-780.029	4.191	1.857	55.20
	167800	-17147.667	-780.334	4.231	1.865	55.26
	168000	-17116.699	-780.640	4.201	1.873	55.32
	168200	-17082.916	-779.724	4.151	1.868	55.40
	168400	-17046.318	-778.503	4.159	1.865	55.46
	168600	-17004.089	-777.893	4.223	1.866	55.52
	168800	-16970.306	-776.978	4.218	1.873	55.59
	169000	-16930.893	-776.978	4.186	1.871	55.66
	169200	-16885.849	-776.367	4.142	1.863	55.72
	169400	-16843.620	-776.672	4.032	1.837	55.78
	169600	-16792.946	-774.231	4.201	1.841	55.86
	169800	-16750.717	-775.757	4.213	1.855	55.92
	170000	-16702.858	-774.841	4.221	1.868	55.98
	170200	-16657.814	-773.315	4.201	1.866	56.06
	170400	-16609.955	-771.179	4.175	1.859	56.12
	170600	-16550.835	-770.569	4.199	1.859	56.18
	170800	-16497.345	-771.179	4.145	1.856	56.25
	171000	-16446.671	-769.043	4.114	1.844	56.32
	171200	-16424.149	-768.738	4.152	1.841	56.38
	171400	-16387.550	-769.043	4.152	1.840	56.44
	171600	-16356.583	-768.433	4.135	1.839	56.52
	171800	-16319.984	-768.738	4.091	1.838	56.58
	172000	-16277.756	-765.991	4.062	1.821	56.64
	172200	-16224.266	-763.245	4.095	1.817	56.72
	172400	-16165.146	-762.329	4.092	1.816	56.78
	172600	-16108.841	-762.634	4.129	1.822	56.84
	172800	-16052.536	-761.719	4.125	1.827	56.91
	173000	-16001.862	-759.888	4.106	1.832	56.98
	173200	-15937.111	-758.362	4.103	1.826	57.04
	173400	-15883.621	-755.005	4.104	1.824	57.10
	173600	-15827.316	-752.258	4.055	1.815	57.18
	173800	-15776.642	-750.732	4.063	1.805	57.24
	174000	-15717.522	-749.817	4.071	1.799	57.30
	174200	-15652.771	-749.817	4.062	1.797	57.38
	174400	-15602.097	-748.596	4.044	1.794	57.44
	174600	-15542.976	-746.460	4.052	1.788	57.50
	174800	-15483.856	-747.681	4.038	1.785	57.57
	175000	-15427.551	-747.375	4.045	1.785	57.64
	175200	-15359.985	-744.019	4.043	1.786	57.70
	175400	-15303.680	-740.662	4.039	1.784	57.76
	175600	-15236.115	-737.610	4.037	1.784	57.84
	175800	-15171.364	-736.694	4.016	1.778	57.90
	176000	-15120.689	-734.863	4.067	1.779	57.96
	176200	-15061.569	-733.643	4.035	1.782	58.04
	176400	-14996.819	-733.643	4.034	1.780	58.10
	176600	-14937.698	-733.643	4.077	1.787	58.16
	176800	-14875.763	-732.422	4.013	1.783	58.23
	177000	-14813.828	-727.844	4.064	1.778	58.30
	177200	-14751.892	-726.013	4.035	1.772	58.36
	177400	-14695.587	-724.792	3.998	1.763	58.42
	177600	-14636.467	-723.572	4.027	1.760	58.50
	177800	-14582.977	-722.961	3.992	1.761	58.56
	178000	-14523.857	-720.215	4.013	1.759	58.62
	178200	-14461.922	-718.689	3.959	1.750	58.70
	178400	-14411.247	-718.689	3.961	1.744	58.76
	178600	-14346.497	-717.163	3.958	1.737	58.82
	178800	-14290.192	-718.384	3.973	1.738	58.89
	179000	-14233.887	-719.299	3.957	1.736	58.96
	179200	-14177.582	-720.520	3.922	1.732	59.02
	179400	-14121.277	-721.741	3.923	1.722	59.08
	179600	-14053.711	-718.689	3.992	1.735	59.16
	179800	-14005.852	-715.332	3.997	1.741	59.22
	180000	-13946.732	-713.501	3.990	1.746	59.28
	180200	-13887.611	-712.891	3.984	1.746	59.36
	180400	-13828.491	-712.585	4.030	1.749	59.42
	180600	-13772.186	-711.975	3.988	1.746	59.48
	180800	-13721.512	-709.534	3.990	1.737	59.55
	181000	-13653.946	-708.313	3.999	1.732	59.62
	181200	-13603.271	-707.703	4.001	1.731	59.68
	181400	-13546.967	-709.229	4.000	1.730	59.74
	181600	-13490.662	-710.144	4.044	1.739	59.82
	181800	-13434.357	-710.144	4.112	1.760	59.88
	182000	-13378.052	-711.365	4.099	1.767	59.94
	182200	-13327.377	-711.975	4.052	1.761	60.02
	182400	-13271.072	-711.365	4.055	1.755	60.08
	182600	-13214.767	-708.923	3.953	1.735	60.14
	182800	-13161.278	-706.787	3.947	1.718	60.21
	183000	-13107.788	-706.177	3.933	1.705	60.28
	183200	-13054.298	-704.651	3.920	1.697	60.34
	183400	-12995.178	-704.041	3.832	1.676	60.40
	183600	-12941.689	-702.515	3.878	1.667	60.48
	183800	-12885.384	-703.430	4.000	1.689	60.54
	184000	-12837.524	-703.430	4.020	1.711	60.60
	184200	-12786.850	-704.956	4.005	1.716	60.68
	184400	-12736.176	-704.651	3.994	1.716	60.74
	184600	-12750.252	-704.346	4.074	1.721	60.80
	184800	-12775.589	-707.703	3.966	1.718	60.87
	185000	-12789.665	-713.806	4.002	1.700	60.94
	185200	-12786.850	-722.351	4.031	1.709	61.00
	185400	-12786.850	-726.318	4.035	1.716	61.06
	185600	-12769.958	-728.455	3.995	1.712	61.14
	185800	-12795.296	-729.370	3.863	1.674	61.20
	186000	-12820.633	-732.422	3.853	1.648	61.26
	186200	-12823.448	-735.779	3.912	1.648	61.34
	186400	-12831.894	-739.136	3.864	1.646	61.40
	186600	-12823.448	-740.967	3.882	1.643	61.46
	186800	-12812.187	-743.713	3.887	1.641	61.53
	187000	-12798.111	-745.850	3.870	1.645	61.60
	187200	-12781.219	-748.901	3.851	1.635	61.66
	187400	-12767.143	-753.479	3.916	1.631	61.72
	187600	-12741.806	-757.751	3.961	1.648	61.80
	187800	-12719.284	-759.583	3.963	1.653	61.86
	188000	-12693.947	-760.193	4.014	1.663	61.92
	188200	-12671.425	-761.719	3.957	1.663	62.00
	188400	-12643.272	-763.245	4.003	1.662	62.06
	188600	-12623.566	-767.822	3.968	1.664	62.12
	188800	-12595.413	-768.738	4.025	1.667	62.19
	189000	-12572.891	-771.179	4.005	1.669	62.26
	189200	-12536.293	-773.010	4.007	1.674	62.32
	189400	-12516.586	-773.621	4.037	1.671	62.38
	189600	-12491.249	-773.010	4.018	1.671	62.46
	189800	-12465.912	-774.231	3.944	1.660	62.52
	190000	-12443.390	-776.672	3.941	1.651	62.58
	190200	-12418.053	-779.724	3.979	1.652	62.66
	190400	-12392.715	-783.081	3.987	1.647	62.72
	190600	-12364.563	-786.438	3.936	1.636	62.78
	190800	-12339.226	-794.678	4.093	1.662	62.85
	191000	-12316.704	-797.729	4.085	1.673	62.92
	191200	-12330.780	-795.898	4.113	1.682	62.98
	191400	-12474.358	-798.645	3.873	1.658	63.04
	191600	-12598.228	-803.528	3.792	1.602	63.12
	191800	-12696.762	-809.021	3.906	1.596	63.18
	192000	-12769.958	-816.040	3.910	1.598	63.24
	192200	-12837.524	-823.364	4.013	1.609	63.32
	192400	-12893.829	-831.299	4.003	1.632	63.38
	192600	-12933.243	-837.097	3.893	1.613	63.44
	192800	-12964.211	-844.421	3.831	1.580	63.51
	193000	-13003.624	-849.915	3.720	1.570	63.58
	193200	-13031.776	-857.239	3.816	1.537	63.64
	193400	-13059.929	-863.037	3.848	1.543	63.70
	193600	-13088.081	-868.835	3.810	1.544	63.78
	193800	-13110.603	-872.192	3.838	1.537	63.84
	194000	-13138.756	-877.991	3.805	1.537	63.90
	194200	-13164.093	-881.042	3.835	1.534	63.98
	194400	-13183.800	-882.263	3.811	1.538	64.04
	194600	-13197.876	-883.789	3.798	1.533	64.10
	194800	-13214.767	-885.010	3.803	1.531	64.17
	195000	-13228.844	-887.756	3.766	1.525	64.24
	195200	-13237.289	-889.893	3.755	1.511	64.30
	195400	-13262.627	-892.639	3.747	1.508	64.36
	195600	-13271.072	-893.250	3.788	1.512	64.44
	195800	-13285.149	-893.555	3.805	1.521	64.50
	196000	-13285.149	-895.386	3.874	1.532	64.56
	196200	-13299.225	-896.606	3.865	1.540	64.64
	196400	-13316.116	-899.658	3.867	1.540	64.70
	196600	-13318.932	-900.574	3.851	1.542	64.76
	196800	-13327.377	-902.100	3.843	1.541	64.83
	197000	-13333.008	-903.931	3.852	1.537	64.90
	197200	-13338.638	-906.372	3.827	1.533	64.96
	197400	-13344.269	-909.424	3.824	1.529	65.03
	197600	-13355.530	-913.696	3.805	1.522	65.10
	197800	-13352.715	-914.307	3.800	1.517	65.16
	198000	-13358.345	-915.527	3.827	1.521	65.22
	198200	-13363.976	-914.917	3.839	1.523	65.30
	198400	-13375.237	-916.138	3.795	1.520	65.36
	198600	-13366.791	-916.443	3.704	1.500	65.42
	198800	-13375.237	-916.443	3.719	1.486	65.49
	199000	-13378.052	-917.664	3.713	1.478	65.56
	199200	-13383.682	-917.664	3.759	1.480	65.62
	199400	-13380.867	-917.969	3.848	1.501	65.68
	199600	-13386.497	-917.358	3.890	1.524	65.76
	199800	-13386.497	-918.579	3.878	1.531	65.82
	200000	-13389.313	-918.884	3.864	1.534	65.89
	200200	-13397.758	-920.105	3.845	1.530	65.96
	200400	-13476.585	-922.241	3.882	1.530	66.02
	200600	-13530.075	-928.345	3.868	1.531	66.08
	200800	-13577.934	-931.702	3.874	1.537	66.15
	201000	-13679.283	-935.059	3.830	1.531	66.22
	201200	-13825.676	-941.772	3.817	1.530	66.28
	201400	-13932.655	-947.571	3.758	1.508	66.34
	201600	-14036.819	-950.317	3.746	1.494	66.42
	201800	-14129.723	-952.454	3.752	1.488	66.48
	202000	-14200.104	-954.895	3.783	1.490	66.54
	202200	-14267.670	-957.642	3.785	1.499	66.61
	202400	-14318.344	-961.609	3.737	1.494	66.68
	202600	-14360.573	-963.440	3.752	1.488	66.74
	202800	-14411.247	-966.187	3.781	1.489	66.81
	203000	-14439.400	-969.543	3.766	1.492	66.88
	203200	-14470.367	-973.816	3.783	1.497	66.94
	203400	-14501.335	-975.037	3.807	1.502	67.00
	203600	-14529.488	-975.342	3.786	1.507	67.08
	203800	-14554.825	-976.257	3.788	1.506	67.14
	204000	-14571.716	-976.562	3.747	1.492	67.20
	204200	-14588.608	-978.699	3.776	1.495	67.28
	204400	-14605.499	-981.750	3.778	1.497	67.34
	204600	-14613.945	-983.582	3.782	1.496	67.40
	204800	-14622.391	-983.582	3.792	1.498	67.47
	205000	-14628.021	-983.276	3.799	1.503	67.54
	205200	-14633.652	-981.750	3.783	1.502	67.60
	205400	-14633.652	-980.835	3.794	1.503	67.67
	205600	-14628.021	-982.361	3.828	1.505	67.74
	205800	-14625.206	-982.056	3.800	1.512	67.80
	206000	-14616.760	-981.445	3.773	1.505	67.86
	206200	-14611.130	-979.614	3.786	1.501	67.94
	206400	-14602.684	-980.530	3.867	1.498	68.00
	206600	-14599.869	-982.056	3.729	1.490	68.06
	206800	-14588.608	-981.140	3.716	1.478	68.13
	207000	-14582.977	-983.887	3.759	1.466	68.20
	207200	-14577.347	-983.582	3.863	1.494	68.26
	207400	-14554.825	-983.276	3.864	1.513	68.32
	207600	-14540.749	-983.582	3.814	1.517	68.40
	207800	-14529.488	-984.802	3.798	1.511	68.46
	208000	-14515.411	-985.718	3.803	1.509	68.53
	208200	-14501.335	-986.633	3.777	1.506	68.60
	208400	-14481.628	-985.107	3.821	1.506	68.66
	208600	-14470.367	-981.750	3.785	1.505	68.72
	208800	-14450.661	-978.699	3.799	1.513	68.79
	209000	-14430.954	-977.173	3.778	1.510	68.86
	209200	-14419.693	-975.037	3.711	1.496	68.92
	209400	-14408.432	-971.985	3.702	1.481	68.98
	209600	-14394.356	-970.764	3.737	1.476	69.06
	209800	-14377.464	-969.543	3.725	1.474	69.12
	210000	-14357.758	-969.238	3.715	1.475	69.18
	210200	-14399.986	-970.459	3.661	1.468	69.26
	210400	-14445.030	-970.154	3.706	1.464	69.32
	210600	-14473.183	-976.868	3.531	1.447	69.39
	210800	-14506.966	-981.750	3.499	1.416	69.45
	211000	-14529.488	-980.835	3.490	1.399	69.52
	211200	-14546.379	-979.309	3.603	1.394	69.58
	211400	-14557.640	-979.309	3.661	1.414	69.64
	211600	-14566.086	-980.225	3.563	1.424	69.72
	211800	-14568.901	-978.088	3.646	1.430	69.78
	212000	-14571.716	-977.173	3.660	1.437	69.84
	212200	-14602.684	-976.868	3.687	1.447	69.92
	212400	-14673.065	-977.173	3.534	1.429	69.98
	212600	-14726.555	-978.394	3.686	1.437	70.04
	212800	-14763.153	-980.530	3.726	1.452	70.11
	213000	-14796.936	-980.835	3.748	1.461	70.18
	213200	-14816.643	-979.919	3.598	1.458	70.24
	213400	-14836.349	-979.919	3.611	1.451	70.31
	213600	-14844.795	-979.309	3.576	1.443	70.38
	213800	-14858.871	-976.868	3.636	1.439	70.44
	214000	-14912.361	-973.511	3.687	1.451	70.50
	214200	-14974.297	-973.206	3.673	1.458	70.58
	214400	-15033.417	-975.037	3.708	1.465	70.64
	214600	-15070.015	-977.173	3.712	1.472	70.70
	214800	-15103.798	-978.088	3.560	1.450	70.77
	215000	-15123.505	-975.952	3.726	1.467	70.84
	215200	-15137.581	-975.342	3.735	1.488	70.90
	215400	-15148.842	-973.206	3.788	1.507	70.96
	215600	-15151.657	-974.121	3.776	1.499	71.04
	215800	-15160.103	-975.037	3.504	1.480	71.10
	216000	-15157.288	-969.849	3.557	1.439	71.17
	216200	-15157.288	-964.661	3.981	1.513	71.24
	216400	-15157.288	-961.609	4.002	1.561	71.30
	216600	-15148.842	-959.167	3.975	1.586	71.36
	216800	-15137.581	-955.811	4.004	1.596	71.43
	217000	-15137.581	-956.726	3.783	1.592	71.50
	217200	-15126.320	-955.200	4.290	1.635	71.56
	217400	-15120.689	-951.843	4.157	1.669	71.62
	217600	-15103.798	-945.129	4.186	1.681	71.69
	217800	-15095.352	-937.805	4.173	1.694	71.76
	218000	-15072.830	-932.922	4.152	1.698	71.82
	218200	-15058.754	-928.955	4.186	1.701	71.90
	218400	-15036.232	-925.293	4.205	1.710	71.96
	218600	-15016.525	-924.377	4.149	1.713	72.03
	218800	-14996.819	-920.715	4.152	1.706	72.09
	219000	-14974.297	-915.833	4.171	1.706	72.16
	219200	-14946.144	-910.950	4.155	1.708	72.22
	219400	-14932.068	-903.625	4.168	1.711	72.28
	219600	-14906.731	-896.606	4.176	1.711	72.36
	219800	-14884.209	-889.893	4.095	1.705	72.42
	220000	-14858.871	-885.620	4.088	1.692	72.48
	220200	-14844.795	-883.179	4.050	1.686	72.56
	220400	-14819.458	-879.822	4.067	1.685	72.62
	220600	-14802.567	-876.160	4.062	1.687	72.68
	220800	-14782.860	-872.192	4.054	1.687	72.75
	221000	-14749.077	-868.530	4.069	1.684	72.82
	221200	-14729.370	-867.615	4.051	1.681	72.88
	221400	-14704.033	-863.953	4.055	1.679	72.94
	221600	-14681.511	-857.849	4.085	1.688	73.02
	221800	-14664.619	-853.882	4.073	1.697	73.08
	222000	-14633.652	-849.609	4.067	1.697	73.14
	222200	-14611.130	-845.642	4.054	1.693	73.22
	222400	-14588.608	-841.675	4.029	1.694	73.28
	222600	-14560.455	-837.097	4.071	1.693	73.34
	222800	-14535.118	-833.130	4.078	1.702	73.41
	223000	-14518.227	-828.857	4.051	1.710	73.48
	223200	-14492.889	-826.721	4.055	1.707	73.54
	223400	-14478.813	-824.585	4.042	1.699	73.60
	223600	-14447.845	-822.144	4.017	1.698	73.68
	223800	-14430.954	-817.261	4.056	1.697	73.74
	224000	-14408.432	-812.073	4.028	1.702	73.81
	224200	-14385.910	-807.190	4.041	1.706	73.88
	224400	-14349.312	-802.307	4.070	1.709	73.94
	224600	-14326.790	-802.307	4.085	1.718	74.00
	224800	-14295.822	-800.476	4.079	1.721	74.07
	225000	-14290.192	-795.898	4.066	1.721	74.14
	225200	-14329.605	-790.710	4.022	1.717	74.20
	225400	-14360.573	-786.438	4.101	1.717	74.26
	225600	-14388.725	-781.555	4.080	1.727	74.33
	225800	-14414.062	-777.283	4.023	1.727	74.40
	226000	-14419.693	-774.231	4.051	1.727	74.46
	226200	-14436.584	-771.484	3.973	1.718	74.54
	226400	-14447.845	-772.095	3.954	1.702	74.60
	226600	-14450.661	-769.043	3.962	1.696	74.67
	226800	-14450.661	-765.686	4.003	1.706	74.73
	227000	-14456.291	-763.855	4.078	1.719	74.80
	227200	-14442.215	-762.634	4.035	1.731	74.86
	227400	-14442.215	-760.193	4.031	1.730	74.92
	227600	-14433.769	-756.226	4.044	1.733	75.00
	227800	-14433.769	-754.089	4.041	1.734	75.06
	228000	-14422.508	-751.343	4.019	1.732	75.12
	228200	-14414.062	-748.291	4.049	1.739	75.19
	228400	-14399.986	-745.544	4.079	1.745	75.26
	228600	-14397.171	-742.493	4.035	1.747	75.32
	228800	-14385.910	-740.662	4.047	1.747	75.39
	229000	-14377.464	-737.610	4.036	1.743	75.46
	229200	-14366.203	-733.337	4.069	1.748	75.52
	229400	-14354.942	-730.286	4.068	1.752	75.58
	229600	-14335.236	-726.929	4.115	1.761	75.66
	229800	-14321.159	-723.572	4.139	1.777	75.72
	230000	-14295.822	-721.130	4.118	1.784	75.78
	230200	-14278.931	-718.994	4.094	1.781	75.86
	230400	-14267.670	-717.468	4.080	1.779	75.92
	230600	-14253.593	-715.027	4.063	1.773	75.98
	230800	-14239.517	-714.417	4.080	1.769	76.05
	231000	-14222.626	-713.501	4.088	1.771	76.12
	231200	-14208.549	-713.196	4.082	1.773	76.18
	231400	-14197.289	-709.839	4.092	1.774	76.24
	231600	-14233.887	-709.534	4.073	1.779	76.32
	231800	-14276.115	-708.313	4.126	1.781	76.38
	232000	-14298.637	-705.872	4.094	1.789	76.44
	232200	-14318.344	-703.430	4.123	1.793	76.52
	232400	-14335.236	-700.989	4.120	1.796	76.58
	232600	-14349.312	-700.684	4.130	1.801	76.64
	232800	-14363.388	-699.158	4.116	1.803	76.71
	233000	-14374.649	-697.021	4.113	1.804	76.78
	233200	-14380.280	-694.885	4.085	1.802	76.84
	233400	-14394.356	-692.139	4.048	1.789	76.90
	233600	-14394.356	-691.528	3.988	1.774	76.97
	233800	-14388.725	-689.392	4.044	1.769	77.04
	234000	-14385.910	-687.866	3.998	1.765	77.10
	234200	-14388.725	-688.782	4.020	1.762	77.18
	234400	-14374.649	-686.951	4.025	1.769	77.24
	234600	-14369.019	-684.204	4.013	1.769	77.31
	234800	-14366.203	-680.847	4.014	1.769	77.37
	235000	-14354.942	-678.711	4.066	1.773	77.44
	235200	-14357.758	-675.964	4.066	1.784	77.50
	235400	-14354.942	-673.828	4.068	1.789	77.56
	235600	-14346.497	-670.776	4.030	1.787	77.64
	235800	-14335.236	-668.335	4.019	1.784	77.70
	236000	-14326.790	-667.114	4.049	1.782	77.76
	236200	-14318.344	-665.588	4.049	1.786	77.83
	236400	-14290.192	-665.588	4.051	1.791	77.90
	236600	-14287.376	-663.757	4.045	1.793	77.96
	236800	-14267.670	-662.537	4.052	1.794	78.03
	237000	-14264.854	-661.011	4.047	1.795	78.10
	237200	-14256.409	-659.485	4.057	1.798	78.16
	237400	-14253.593	-661.621	4.035	1.788	78.22
	237600	-14250.778	-661.621	4.129	1.803	78.30
	237800	-14245.148	-660.706	4.133	1.818	78.36
	238000	-14236.702	-657.654	4.153	1.827	78.42
	238200	-14233.887	-655.823	4.106	1.830	78.50
	238400	-14228.256	-652.161	4.102	1.825	78.56
	238600	-14214.180	-650.024	4.079	1.820	78.62
	238800	-14208.549	-647.278	4.118	1.821	78.69
	239000	-14200.104	-645.142	4.171	1.837	78.76
	239200	-14197.289	-645.447	4.170	1.845	78.82
	239400	-14191.658	-649.414	4.162	1.849	78.89
	239600	-14188.843	-652.771	4.160	1.846	78.96
	239800	-14180.397	-650.024	4.151	1.844	79.02
	240000	-14169.136	-645.752	4.132	1.844	79.08
	240200	-14157.875	-642.395	4.149	1.842	79.16
	240400	-14143.799	-642.395	4.131	1.837	79.22
	240600	-14126.907	-642.395	4.149	1.844	79.28
	240800	-14110.016	-639.343	4.129	1.844	79.35
	241000	-14098.755	-637.207	4.152	1.843	79.42
	241200	-14090.309	-637.512	4.163	1.844	79.48
	241400	-14070.602	-637.207	4.151	1.847	79.54
	241600	-14067.787	-633.545	4.135	1.847	79.61
	241800	-14053.711	-630.493	4.176	1.854	79.68
	242000	-14039.635	-626.526	4.209	1.861	79.74
	242200	-14031.189	-624.084	4.185	1.866	79.82
	242400	-14014.297	-622.864	4.191	1.864	79.88
	242600	-13994.591	-623.474	4.178	1.866	79.94
	242800	-13983.330	-624.695	4.159	1.865	80.01
	243000	-13966.438	-622.559	4.160	1.861	80.08
	243200	-13952.362	-620.422	4.149	1.857	80.14
	243400	-13946.732	-619.812	4.146	1.852	80.20
	243600	-13929.840	-619.812	4.039	1.844	80.28
	243800	-13912.949	-619.812	4.042	1.822	80.34
	244000	-13901.688	-617.371	4.134	1.817	80.40
	244200	-13884.796	-614.929	4.171	1.840	80.47
	244400	-13859.459	-613.098	4.177	1.850	80.54
	244600	-13839.752	-611.877	4.217	1.860	80.60
	244800	-13836.937	-612.488	4.195	1.867	80.67
	245000	-13817.230	-613.708	4.155	1.863	80.74
	245200	-13805.969	-613.708	4.172	1.860	80.80
	245400	-13786.263	-612.793	4.214	1.866	80.86
	245600	-13772.186	-611.267	4.177	1.862	80.94
	245800	-13766.556	-610.657	4.185	1.859	81.00
	246000	-13766.556	-611.267	4.140	1.849	81.06
	246200	-13763.741	-610.657	4.160	1.848	81.14
	246400	-13766.556	-611.267	4.146	1.851	81.20
	246600	-13766.556	-611.877	4.095	1.844	81.26
	246800	-13777.817	-610.657	4.211	1.850	81.33
	247000	-13766.556	-608.826	4.194	1.860	81.40
	247200	-13758.110	-609.436	4.196	1.862	81.46
	247400	-13755.295	-608.826	4.203	1.863	81.53
	247600	-13744.034	-608.215	4.193	1.868	81.60
	247800	-13727.142	-607.605	4.254	1.876	81.66
	248000	-13713.066	-607.300	4.251	1.890	81.72
	248200	-13749.664	-606.995	4.262	1.897	81.80
	248400	-13834.122	-609.741	4.229	1.893	81.86
	248600	-13901.688	-611.877	4.254	1.888	81.92
	248800	-13952.362	-616.455	4.196	1.883	81.99
	249000	-13983.330	-617.981	4.201	1.878	82.06
	249200	-14011.482	-620.728	4.229	1.878	82.12
	249400	-14019.928	-620.117	4.203	1.877	82.18
	249600	-14028.374	-619.812	4.194	1.874	82.26
	249800	-14039.635	-618.896	4.207	1.874	82.32
	250000	-14045.265	-619.812	4.202	1.873	82.38
	250200	-14053.711	-621.033	4.185	1.870	82.46
	250400	-14059.341	-623.474	4.209	1.873	82.52
	250600	-14056.526	-624.084	4.215	1.876	82.58
	250800	-14059.341	-623.474	4.186	1.877	82.65
	251000	-14050.896	-623.169	4.110	1.852	82.72
	251200	-14042.450	-621.948	4.122	1.846	82.78
	251400	-14039.635	-621.643	4.146	1.849	82.84
	251600	-14042.450	-623.474	4.167	1.856	82.92
	251800	-14036.819	-621.643	4.120	1.858	82.98
	252000	-14031.189	-621.338	4.124	1.850	83.04
	252200	-14017.113	-621.033	4.195	1.858	83.12
	252400	-14070.602	-621.033	4.198	1.865	83.18
	252600	-14140.984	-623.474	4.164	1.866	83.24
	252800	-14197.289	-626.526	4.120	1.859	83.31
	253000	-14233.887	-627.441	4.146	1.855	83.38
	253200	-14276.115	-627.136	4.114	1.854	83.44
	253400	-14318.344	-629.272	4.090	1.839	83.50
	253600	-14335.236	-631.714	4.146	1.844	83.58
	253800	-14352.127	-634.460	4.176	1.851	83.64
	254000	-14363.388	-635.681	4.109	1.848	83.70
	254200	-14377.464	-636.597	4.112	1.840	83.78
	254400	-14385.910	-636.292	4.104	1.840	83.84
	254600	-14402.802	-637.512	4.128	1.838	83.90
	254800	-14414.062	-638.123	4.152	1.840	83.97
	255000	-14422.508	-636.597	4.131	1.850	84.04
	255200	-14419.693	-636.597	4.064	1.835	84.10
	255400	-14425.323	-637.207	4.114	1.829	84.16
	255600	-14425.323	-638.123	4.165	1.843	84.24
	255800	-14425.323	-640.564	4.150	1.846	84.30
	256000	-14442.215	-644.531	4.064	1.835	84.36
	256200	-14442.215	-647.278	4.149	1.840	84.44
	256400	-14453.476	-648.804	4.163	1.847	84.50
	256600	-14459.106	-647.888	4.198	1.857	84.56
	256800	-14447.845	-646.667	4.141	1.859	84.64
	257000	-14445.030	-646.362	4.120	1.851	84.70
	257200	-14445.030	-647.278	4.145	1.849	84.76
	257400	-14436.584	-649.414	4.135	1.846	84.82
	257600	-14442.215	-651.245	4.107	1.834	84.90
	257800	-14436.584	-652.771	4.060	1.825	84.96
	258000	-14433.769	-652.771	4.086	1.819	85.02
	258200	-14419.693	-650.330	4.081	1.819	85.10
	258400	-14411.247	-650.330	4.053	1.814	85.16
	258600	-14399.986	-651.550	4.050	1.810	85.22
	258800	-14385.910	-654.297	4.056	1.806	85.29
	259000	-14380.280	-656.433	4.044	1.800	85.36
	259200	-14374.649	-657.959	4.044	1.796	85.42
	259400	-14354.942	-658.875	4.054	1.798	85.49
	259600	-14343.681	-660.095	4.077	1.799	85.56
	259800	-14321.159	-659.485	4.117	1.810	85.62
	260000	-14301.453	-660.095	4.050	1.812	85.68
	260200	-14287.376	-660.095	4.013	1.794	85.76
	260400	-14284.561	-660.095	3.954	1.779	85.82
	260600	-14264.854	-660.095	3.983	1.767	85.88
	260800	-14245.148	-661.621	3.946	1.774	85.95
	261000	-14278.931	-663.452	3.929	1.758	86.02
	261200	-14343.681	-668.030	3.865	1.747	86.08
	261400	-14399.986	-674.133	3.934	1.737	86.14
	261600	-14445.030	-676.270	3.950	1.742	86.22
	261800	-14475.998	-678.406	3.924	1.741	86.28
	262000	-14509.781	-680.847	3.902	1.741	86.34
	262200	-14568.901	-683.289	3.954	1.747	86.42
	262400	-14602.684	-687.866	3.970	1.753	86.48
	262600	-14639.282	-691.833	3.924	1.745	86.54
	262800	-14664.619	-695.496	3.921	1.737	86.61
	263000	-14692.772	-700.684	3.936	1.735	86.68
	263200	-14718.109	-705.566	3.886	1.727	86.74
	263400	-14740.631	-709.534	3.976	1.732	86.81
	263600	-14749.077	-713.196	3.949	1.734	86.88
	263800	-14757.523	-715.027	3.875	1.733	86.94
	264000	-14768.784	-715.637	3.887	1.721	87.00
	264200	-14774.414	-717.163	3.904	1.719	87.08
	264400	-14782.860	-718.994	3.911	1.717	87.14
	264600	-14788.490	-719.910	3.916	1.720	87.20
	264800	-14796.936	-723.572	3.911	1.720	87.27
	265000	-14796.936	-727.844	3.895	1.714	87.34
	265200	-14791.306	-734.253	3.912	1.714	87.40
	265400	-14785.675	-738.220	3.898	1.714	87.47
	265600	-14785.675	-740.356	3.919	1.710	87.54
	265800	-14788.490	-742.493	3.914	1.711	87.60
	266000	-14785.675	-746.460	3.908	1.709	87.66
	266200	-14785.675	-746.155	3.950	1.716	87.74
	266400	-14774.414	-749.207	3.949	1.716	87.80
	266600	-14763.153	-750.732	3.956	1.718	87.86
	266800	-14813.828	-751.038	3.978	1.721	87.93
	267000	-14889.839	-755.310	4.087	1.747	88.00
	267200	-14934.883	-758.972	4.074	1.768	88.06
	267400	-14974.297	-762.939	4.057	1.768	88.12
	267600	-15030.602	-767.212	4.103	1.763	88.20
	267800	-15084.091	-772.705	4.044	1.768	88.26
	268000	-15143.211	-777.588	4.013	1.755	88.32
	268200	-15193.886	-782.471	4.016	1.745	88.40
	268400	-15236.115	-787.659	4.012	1.736	88.46
	268600	-15275.528	-791.626	4.037	1.734	88.52
	268800	-15303.680	-796.204	4.004	1.736	88.59
	269000	-15323.387	-799.561	4.009	1.730	88.66
	269200	-15343.094	-802.612	3.979	1.725	88.72
	269400	-15365.616	-805.359	4.002	1.721	88.78
	269600	-15385.323	-808.105	3.998	1.722	88.86
	269800	-15396.584	-810.547	3.989	1.719	88.92
	270000	-15402.214	-813.293	4.005	1.717	88.98
	270200	-15407.845	-815.125	3.986	1.714	89.06
	270400	-15410.660	-816.650	4.033	1.718	89.12
	270600	-15421.921	-818.176	4.037	1.725	89.18
	270800	-15427.551	-822.449	4.078	1.733	89.25
	271000	-15441.628	-825.806	4.026	1.732	89.32
	271200	-15427.551	-828.552	4.006	1.725	89.38
	271400	-15421.921	-832.214	4.008	1.719	89.44
	271600	-15421.921	-834.351	3.965	1.715	89.52
	271800	-15424.736	-834.351	3.969	1.707	89.58
	272000	-15421.921	-834.656	4.002	1.703	89.64
	272200	-15407.845	-835.571	4.032	1.713	89.72
	272400	-15402.214	-836.792	3.941	1.705	89.78
	272600	-15390.953	-838.013	3.949	1.695	89.84
	272800	-15388.138	-840.149	3.984	1.696	89.91
	273000	-15382.507	-843.811	3.970	1.693	89.98
	273200	-15376.877	-845.337	3.991	1.693	90.04
	273400	-15357.170	-847.168	3.979	1.694	90.11
	273600	-15343.094	-849.609	3.978	1.686	90.18
	273800	-15331.833	-852.051	3.977	1.687	90.24
	274000	-15326.202	-854.187	4.000	1.685	90.30
	274200	-15314.941	-856.323	3.947	1.682	90.38
	274400	-15309.311	-858.154	3.987	1.677	90.44
	274600	-15326.202	-862.732	3.965	1.674	90.50
	274800	-15348.724	-867.004	3.998	1.681	90.57
	275000	-15376.877	-874.939	3.939	1.673	90.64
	275200	-15379.692	-882.874	3.975	1.669	90.70
	275400	-15382.507	-886.841	3.997	1.668	90.76
	275600	-15379.692	-888.367	3.996	1.665	90.84
	275800	-15376.877	-892.029	3.958	1.657	90.90
	276000	-15376.877	-895.691	3.946	1.651	90.96
	276200	-15371.246	-900.269	3.921	1.640	91.04
	276400	-15371.246	-902.405	3.918	1.631	91.10
	276600	-15357.170	-906.067	3.961	1.635	91.16
	276800	-15345.909	-908.508	3.936	1.633	91.24
	277000	-15337.463	-910.339	3.962	1.634	91.30
	277200	-15326.202	-914.001	3.954	1.632	91.36
	277400	-15320.572	-916.443	3.968	1.635	91.43
	277600	-15295.235	-917.053	3.912	1.625	91.50
	277800	-15283.974	-920.715	3.950	1.624	91.56
	278000	-15272.713	-926.208	3.972	1.625	91.62
	278200	-15267.082	-931.702	3.964	1.631	91.70
	278400	-15247.375	-933.228	3.996	1.636	91.76
	278600	-15267.082	-932.922	4.007	1.642	91.82
	278800	-15312.126	-936.279	3.982	1.642	91.90
	279000	-15348.724	-939.941	4.019	1.644	91.96
	279200	-15379.692	-944.214	3.993	1.639	92.02
	279400	-15405.029	-949.402	4.018	1.636	92.08
	279600	-15407.845	-957.336	3.989	1.634	92.16
	279800	-15405.029	-963.135	3.973	1.623	92.22
	280000	-15407.845	-966.187	4.035	1.620	92.28
	280200	-15413.475	-970.459	4.029	1.627	92.36
	280400	-15410.660	-974.731	4.030	1.628	92.42
	280600	-15396.584	-979.309	3.900	1.610	92.48
	280800	-15385.323	-981.140	3.906	1.586	92.56
	281000	-15371.246	-982.361	3.903	1.579	92.62
	281200	-15359.985	-984.497	3.826	1.566	92.68
	281400	-15354.355	-986.328	3.810	1.548	92.75
	281600	-15348.724	-988.770	3.779	1.534	92.82
	281800	-15354.355	-990.906	3.816	1.526	92.88
	282000	-15374.062	-995.483	3.764	1.518	92.94
	282200	-15396.584	-1000.366	3.789	1.509	93.02
	282400	-15427.551	-1002.808	3.817	1.511	93.08
	282600	-15444.443	-1005.859	3.842	1.521	93.14
	282800	-15444.443	-1008.301	3.844	1.525	93.22
	283000	-15444.443	-1010.437	3.781	1.512	93.28
	283200	-15447.258	-1011.658	3.838	1.518	93.34
	283400	-15458.519	-1014.099	3.831	1.522	93.40
	283600	-15450.073	-1015.015	3.810	1.523	93.48
	283800	-15438.812	-1015.320	3.846	1.525	93.54
	284000	-15430.367	-1016.235	3.846	1.529	93.60
	284200	-15438.812	-1016.541	3.992	1.557	93.68
	284400	-15433.182	-1018.372	4.073	1.591	93.74
	284600	-15435.997	-1017.761	4.052	1.607	93.80
	284800	-15514.824	-1019.897	4.044	1.608	93.87
	285000	-15599.281	-1022.339	4.032	1.605	93.94
	285200	-15647.141	-1025.085	4.046	1.605	94.00
	285400	-15686.554	-1027.222	4.008	1.592	94.06
	285600	-15725.967	-1029.053	3.985	1.585	94.14
	285800	-15751.305	-1031.799	3.997	1.582	94.20
	286000	-15787.903	-1035.767	4.026	1.589	94.26
	286200	-15821.686	-1040.649	4.038	1.594	94.34
	286400	-15847.023	-1042.480	4.009	1.590	94.40
	286600	-15869.545	-1042.175	3.943	1.578	94.46
	286800	-15900.513	-1043.396	4.048	1.588	94.54
	287000	-15923.035	-1044.312	4.041	1.598	94.60
	287200	-15948.372	-1047.668	4.002	1.596	94.66
	287400	-15956.818	-1049.194	4.006	1.588	94.73
	287600	-15970.894	-1048.889	3.975	1.578	94.80
	287800	-15990.601	-1047.058	4.083	1.588	94.86
	288000	-16001.862	-1048.279	4.085	1.607	94.92
	288200	-16010.307	-1049.500	4.088	1.614	95.00
	288400	-16015.938	-1048.889	4.044	1.613	95.06
	288600	-16030.014	-1049.500	4.083	1.613	95.12
	288800	-16035.645	-1050.720	4.001	1.597	95.20
	289000	-16044.090	-1050.415	3.944	1.582	95.26
	289200	-16055.351	-1049.194	3.937	1.568	95.32
	289400	-16134.178	-1050.415	3.968	1.563	95.39
	289600	-16204.559	-1052.856	3.987	1.569	95.46
	289800	-16286.201	-1055.603	3.979	1.573	95.52
	290000	-16384.735	-1058.044	4.018	1.578	95.58
	290200	-16472.008	-1061.401	4.023	1.587	95.66
	290400	-16562.096	-1064.453	4.030	1.588	95.72
	290600	-16621.216	-1067.810	4.062	1.597	95.78
	290800	-16666.260	-1073.303	3.958	1.594	95.86
	291000	-16708.488	-1076.050	3.969	1.584	95.92
	291200	-16767.609	-1077.271	4.005	1.584	95.98
	291400	-16784.500	-1075.745	4.031	1.591	96.05
	291600	-16812.653	-1074.524	4.066	1.602	96.12
	291800	-16835.175	-1075.134	4.133	1.620	96.18
	292000	-16860.512	-1076.355	4.133	1.628	96.24
	292200	-16883.034	-1082.458	4.066	1.622	96.32
	292400	-16888.664	-1082.458	4.132	1.630	96.38
	292600	-16891.479	-1079.102	4.124	1.637	96.44
	292800	-16905.556	-1076.355	4.136	1.642	96.51
	293000	-16914.001	-1073.608	4.137	1.645	96.58
	293200	-16922.447	-1075.134	4.030	1.628	96.64
	293400	-16922.447	-1075.439	4.089	1.623	96.71
	293600	-16914.001	-1074.829	4.104	1.628	96.78
	293800	-16925.262	-1072.693	4.083	1.627	96.84
	294000	-16978.752	-1070.862	4.052	1.622	96.90
	294200	-17032.242	-1069.336	4.082	1.622	96.98
	294400	-17046.318	-1067.810	4.058	1.619	97.04
	294600	-17082.916	-1067.200	4.082	1.623	97.10
	294800	-17099.808	-1067.200	4.098	1.632	97.18
	295000	-17091.362	-1065.674	4.085	1.639	97.24
	295200	-17096.992	-1064.148	4.032	1.627	97.30
	295400	-17094.177	-1061.707	4.012	1.619	97.37
	295600	-17082.916	-1056.519	4.017	1.620	97.44
	295800	-17066.025	-1050.720	3.997	1.614	97.50
	296000	-17049.133	-1045.837	3.976	1.616	97.56
	296200	-17040.688	-1042.175	4.027	1.617	97.64
	296400	-17015.350	-1040.039	4.048	1.630	97.70
	296600	-16981.567	-1036.072	3.994	1.628	97.76
	296800	-16956.230	-1032.410	3.968	1.619	97.84
	297000	-16936.523	-1030.884	3.959	1.613	97.90
	297200	-16902.740	-1024.780	4.011	1.622	97.96
	297400	-16854.881	-1017.456	3.998	1.620	98.03
	297600	-16835.175	-1010.132	3.968	1.622	98.10
	297800	-16807.022	-1004.333	3.932	1.609	98.16
	298000	-16767.609	-998.230	4.076	1.615	98.22
	298200	-16722.565	-992.737	4.075	1.645	98.30
	298400	-16688.782	-986.633	4.119	1.666	98.36
	298600	-16677.521	-978.699	4.162	1.684	98.42
	298800	-16649.368	-972.595	4.106	1.699	98.50
	299000	-16621.216	-967.407	4.163	1.709	98.56
	299200	-16604.324	-961.609	4.210	1.721	98.62
	299400	-16564.911	-956.116	4.173	1.724	98.69
	299600	-16525.497	-950.623	4.206	1.725	98.76
	299800	-16488.899	-943.298	4.155	1.730	98.82
	300000	-16449.486	-934.753	4.278	1.751	98.88
	300200	-16407.257	-927.429	4.231	1.764	98.96
	300400	-16362.213	-919.189	4.242	1.769	99.02
	300600	-16325.615	-909.729	4.255	1.774	99.08
	300800	-16297.462	-900.574	4.223	1.775	99.16
	301000	-16249.603	-890.808	4.235	1.781	99.22
	301200	-16198.929	-885.010	4.149	1.775	99.28
	301400	-16167.961	-877.991	4.206	1.780	99.35
	301600	-16122.917	-867.920	4.271	1.794	99.42
	301800	-16080.688	-858.459	4.273	1.809	99.48
	302000	-16041.275	-851.135	4.232	1.810	99.54
	302200	-16018.753	-841.370	4.245	1.815	99.62
	302400	-15982.155	-831.604	4.245	1.822	99.68
	302600	-15931.480	-822.144	4.304	1.838	99.74
	302800	-15897.697	-813.599	4.267	1.837	99.82
	303000	-15866.730	-805.054	4.195	1.835	99.88
	303200	-15813.240	-795.593	4.187	1.824	99.94
	303400	-15765.381	-789.185	4.205	1.820	100.01
	303600	-15728.783	-784.912	4.276	1.829	100.08
	303800	-15689.369	-780.945	4.379	1.859	100.14
	304000	-15635.880	-773.926	4.331	1.871	100.20
	304200	-15588.020	-766.907	4.333	1.884	100.28
	304400	-15542.976	-759.277	4.378	1.886	100.34
	304600	-15503.563	-750.122	4.315	1.886	100.40
	304800	-15450.073	-743.103	4.334	1.891	100.48
	305000	-15393.768	-736.389	4.313	1.891	100.54
	305200	-15357.170	-729.065	4.254	1.884	100.60
	305400	-15309.311	-723.267	4.269	1.874	100.67
	305600	-15255.821	-714.417	4.331	1.886	100.74
	305800	-15207.962	-708.923	4.296	1.890	100.80
	306000	-15154.472	-701.904	4.367	1.903	100.86
	306200	-15103.798	-694.275	4.399	1.920	100.94
	306400	-15044.678	-688.782	4.450	1.940	101.00
	306600	-14996.819	-681.458	4.571	1.967	101.06
	306800	-14948.959	-675.964	4.578	1.999	101.14
	307000	-14887.024	-671.692	4.538	2.013	101.20
	307200	-14839.165	-667.114	4.513	2.010	101.26
	307400	-14788.490	-663.147	4.500	1.991	101.33
	307600	-14737.816	-660.095	4.437	1.982	101.40
	307800	-14695.587	-656.128	4.540	1.986	101.46
	308000	-14667.435	-654.602	4.425	1.972	101.52
	308200	-14653.358	-653.381	4.397	1.960	101.60
	308400	-14628.021	-650.940	4.374	1.953	101.66
	308600	-14591.423	-648.193	4.407	1.951	101.72
	308800	-14566.086	-647.583	4.414	1.949	101.80
	309000	-14540.749	-646.057	4.420	1.956	101.86
	309200	-14492.889	-644.836	4.380	1.950	101.92
	309400	-14453.476	-644.226	4.316	1.936	101.99
	309600	-14414.062	-642.700	4.303	1.927	102.06
	309800	-14380.280	-639.648	4.290	1.920	102.12
	310000	-14332.420	-636.597	4.354	1.920	102.18
	310200	-14290.192	-633.545	4.365	1.932	102.26
	310400	-14250.778	-630.493	4.373	1.936	102.32
	310600	-14197.289	-628.357	4.360	1.938	102.38
	310800	-14152.245	-625.610	4.428	1.945	102.46
	311000	-14112.831	-625.305	4.410	1.951	102.52
	311200	-14064.972	-622.864	4.449	1.961	102.58
	311400	-14011.482	-622.559	4.436	1.962	102.65
	311600	-13966.438	-621.948	4.418	1.969	102.72
	311800	-13927.025	-620.422	4.368	1.950	102.78
	312000	-13865.089	-619.812	4.395	1.944	102.84
	312200	-13817.230	-622.253	4.412	1.946	102.92
	312400	-13772.186	-623.779	4.377	1.944	102.98
	312600	-13727.142	-624.390	4.379	1.943	103.04
	312800	-13668.022	-624.695	4.320	1.930	103.12
	313000	-13622.978	-626.221	4.306	1.921	103.18
	313200	-13566.673	-625.916	4.326	1.908	103.24
	313400	-13521.629	-630.798	4.338	1.907	103.31
	313600	-13476.585	-635.986	4.191	1.880	103.38
	313800	-13425.911	-635.376	4.243	1.870	103.44
	314000	-13366.791	-634.766	4.254	1.873	103.50
	314200	-13327.377	-635.681	4.268	1.874	103.58
	314400	-13279.518	-637.207	4.239	1.870	103.64
	314600	-13228.844	-638.123	4.263	1.868	103.70
	314800	-13180.984	-639.954	4.254	1.866	103.78
	315000	-13135.941	-643.311	4.256	1.865	103.84
	315200	-13082.451	-645.447	4.258	1.862	103.90
	315400	-13034.592	-645.752	4.230	1.858	103.97
	315600	-13000.809	-646.667	4.226	1.851	104.04
	315800	-12950.134	-647.583	4.247	1.846	104.10
	316000	-12896.645	-651.245	4.237	1.844	104.16
	316200	-12854.416	-653.076	4.263	1.844	104.24
	316400	-12809.372	-656.128	4.240	1.839	104.30
	316600	-12767.143	-660.706	4.245	1.837	104.36
	316800	-12719.284	-662.537	4.233	1.830	104.44
	317000	-12685.501	-665.283	4.218	1.824	104.50
	317200	-12632.011	-667.419	4.195	1.817	104.56
	317400	-12586.967	-671.387	4.196	1.808	104.63
	317600	-12556.000	-676.575	4.237	1.809	104.70
	317800	-12502.510	-679.321	4.221	1.810	104.76
	318000	-12457.466	-680.237	4.192	1.804	104.82
	318200	-12429.314	-681.458	4.145	1.790	104.90
	318400	-12384.270	-683.594	4.160	1.777	104.96
	318600	-12339.226	-686.340	4.173	1.777	105.02
	318800	-12302.628	-687.561	4.217	1.780	105.10
	319000	-12266.029	-688.782	4.232	1.790	105.16
	319200	-12215.355	-691.223	4.227	1.795	105.22
	319400	-12181.572	-695.496	4.242	1.794	105.29
	319600	-12147.789	-702.209	4.213	1.788	105.36
	319800	-12099.930	-706.177	4.208	1.778	105.42
	320000	-12060.516	-708.923	4.191	1.770	105.48
	320200	-12032.364	-712.585	4.151	1.757	105.56
	320400	-11984.505	-715.637	4.138	1.745	105.62
	320600	-11945.091	-720.215	4.114	1.735	105.68
	320800	-11914.124	-727.234	4.082	1.720	105.76
	321000	-11869.080	-729.675	4.062	1.706	105.82
	321200	-11829.666	-731.506	4.096	1.698	105.88
	321400	-11801.514	-735.168	4.096	1.697	105.95
	321600	-11762.100	-738.220	4.083	1.695	106.02
	321800	-11722.687	-741.577	4.100	1.694	106.08
	322000	-11700.165	-746.155	4.091	1.689	106.14
	322200	-11660.751	-750.427	4.042	1.680	106.22
	322400	-11652.306	-754.089	4.028	1.666	106.28
	322600	-11683.273	-758.667	4.015	1.658	106.34
	322800	-11700.165	-764.160	3.985	1.651	106.42
	323000	-11702.980	-768.127	3.948	1.636	106.48
	323200	-11700.165	-769.348	3.966	1.625	106.54
	323400	-11708.611	-770.264	3.950	1.614	106.61
	323600	-11697.350	-772.095	3.967	1.614	106.68
	323800	-11691.719	-773.926	4.024	1.623	106.74
	324000	-11694.534	-776.672	4.028	1.631	106.80
	324200	-11677.643	-779.419	4.014	1.630	106.88
	324400	-11663.567	-782.166	4.020	1.629	106.94
	324600	-11663.567	-787.659	3.951	1.618	107.00
	324800	-11652.306	-791.931	3.968	1.606	107.08
	325000	-11632.599	-796.204	3.991	1.608	107.14
	325200	-11632.599	-797.424	4.015	1.613	107.20
	325400	-11618.523	-797.424	3.997	1.610	107.27
	325600	-11593.185	-800.476	3.970	1.603	107.34
	325800	-11584.740	-801.392	3.943	1.596	107.40
	326000	-11573.479	-802.612	3.927	1.588	107.46
	326200	-11559.402	-804.443	3.935	1.583	107.54
	326400	-11556.587	-806.580	3.940	1.579	107.60
	326600	-11545.326	-809.021	3.990	1.590	107.66
	326800	-11525.620	-811.462	3.987	1.593	107.74
	327000	-11522.804	-813.293	3.992	1.593	107.80
	327200	-11508.728	-815.430	3.997	1.596	107.86
	327400	-11491.837	-820.618	3.992	1.594	107.93
	327600	-11480.576	-821.228	3.930	1.591	108.00
	327800	-11469.315	-819.397	3.909	1.574	108.06
	328000	-11452.423	-819.397	3.897	1.562	108.12
	328200	-11449.608	-819.397	3.862	1.558	108.20
	328400	-11432.716	-820.007	3.885	1.553	108.26
	328600	-11410.194	-819.092	3.867	1.546	108.32
	328800	-11404.564	-820.923	3.837	1.533	108.40
	329000	-11390.488	-821.838	3.858	1.533	108.46
	329200	-11373.596	-822.754	3.875	1.536	108.52
	329400	-11359.520	-824.585	3.873	1.541	108.59
	329600	-11351.074	-825.500	3.842	1.533	108.66
	329800	-11322.922	-826.111	3.867	1.530	108.72
	330000	-11317.291	-824.890	3.895	1.534	108.78
	330200	-11303.215	-822.449	3.939	1.549	108.86
	330400	-11283.508	-820.007	3.923	1.549	108.92
	330600	-11275.063	-820.923	3.903	1.550	108.98
	330800	-11258.171	-819.397	3.885	1.546	109.06
	331000	-11238.464	-819.702	3.894	1.544	109.12
	331200	-11227.203	-818.787	3.888	1.539	109.18
	331400	-11221.573	-817.261	3.897	1.534	109.25
	331600	-11201.866	-816.956	3.895	1.540	109.32
	331800	-11199.051	-816.345	3.847	1.531	109.38
	332000	-11190.605	-814.514	3.853	1.526	109.44
	332200	-11179.344	-812.683	3.850	1.525	109.52
	332400	-11184.975	-813.293	3.853	1.524	109.58
	332600	-11266.617	-814.514	3.844	1.523	109.64
	332800	-11339.813	-816.345	3.838	1.519	109.72
	333000	-11418.640	-819.702	3.859	1.523	109.78
	333200	-11480.576	-824.280	3.856	1.525	109.84
	333400	-11519.989	-827.942	3.844	1.524	109.91
	333600	-11562.218	-830.078	3.844	1.522	109.98
	333800	-11601.631	-833.130	3.860	1.522	110.04
	334000	-11621.338	-836.792	3.837	1.520	110.10
	334200	-11652.306	-838.623	3.849	1.516	110.18
	334400	-11688.904	-838.928	3.914	1.525	110.24
	334600	-11711.426	-840.759	3.914	1.534	110.30
	334800	-11733.948	-841.980	3.896	1.539	110.38
	335000	-11767.731	-841.064	3.866	1.542	110.44
	335200	-11773.361	-841.675	3.892	1.534	110.50
	335400	-11793.068	-841.980	3.934	1.545	110.57
	335600	-11824.036	-843.811	3.908	1.547	110.64
	335800	-11838.112	-845.337	3.907	1.548	110.70
	336000	-11846.558	-847.473	3.935	1.543	110.76
	336200	-11877.525	-848.694	3.898	1.544	110.84
	336400	-11894.417	-849.915	3.898	1.544	110.90
	336600	-11902.863	-850.220	3.868	1.536	110.96
	336800	-11928.200	-849.915	3.854	1.528	111.04
	337000	-11945.091	-851.746	3.879	1.527	111.10
	337200	-11945.091	-854.797	3.878	1.531	111.16
	337400	-11970.428	-855.103	3.860	1.531	111.23
	337600	-12015.472	-855.103	3.868	1.531	111.30
	337800	-12130.898	-856.934	3.895	1.530	111.36
	338000	-12235.062	-862.122	3.907	1.533	111.42
	338200	-12319.519	-863.647	3.943	1.548	111.50
	338400	-12367.378	-866.089	3.913	1.553	111.56
	338600	-12434.944	-867.615	3.904	1.552	111.62
	338800	-12482.803	-868.530	3.907	1.550	111.70
	339000	-12516.586	-870.056	3.934	1.554	111.76
	339200	-12561.630	-873.413	3.908	1.560	111.82
	339400	-12598.228	-873.718	3.921	1.553	111.89
	339600	-12632.011	-873.108	3.915	1.557	111.96
	339800	-12671.425	-870.972	3.900	1.557	112.02
	340000	-12702.393	-870.972	3.913	1.556	112.08
	340200	-12736.176	-873.413	3.900	1.558	112.16
	340400	-12806.557	-875.549	3.934	1.559	112.22
	340600	-12848.785	-874.939	3.866	1.555	112.28
	340800	-12885.384	-872.498	3.848	1.544	112.36
	341000	-12964.211	-870.972	3.875	1.542	112.42
	341200	-13102.158	-873.108	3.831	1.539	112.48
	341400	-13217.583	-876.160	3.858	1.538	112.55
	341600	-13349.899	-879.517	3.876	1.544	112.62
	341800	-13442.802	-885.010	3.889	1.541	112.68
	342000	-13544.151	-888.367	3.961	1.563	112.74
	342200	-13637.054	-891.418	3.919	1.571	112.82
	342400	-13713.066	-893.555	3.862	1.566	112.88
	342600	-13794.708	-894.775	3.867	1.557	112.94
	342800	-13865.089	-895.996	3.909	1.558	113.02
	343000	-13932.655	-896.912	3.927	1.565	113.08
	343200	-13991.776	-899.353	3.909	1.567	113.14
	343400	-14050.896	-903.015	3.903	1.568	113.21
	343600	-14098.755	-903.625	3.968	1.578	113.28
	343800	-14143.799	-903.015	3.954	1.587	113.34
	344000	-14188.843	-902.710	3.939	1.589	113.40
	344200	-14225.441	-902.405	3.963	1.588	113.48
	344400	-14267.670	-903.015	3.948	1.591	113.54
	344600	-14304.268	-902.710	3.938	1.592	113.60
	344800	-14323.975	-900.879	4.027	1.607	113.68
	345000	-14357.758	-900.269	3.998	1.616	113.74
	345200	-14383.095	-896.301	4.028	1.624	113.80
	345400	-14399.986	-891.113	4.009	1.630	113.87
	345600	-14433.769	-885.010	4.024	1.629	113.94
	345800	-14436.584	-882.568	3.969	1.627	114.00
	346000	-14447.845	-879.822	3.937	1.615	114.06
	346200	-14470.367	-878.296	3.950	1.615	114.14
	346400	-14492.889	-877.686	3.936	1.614	114.20
	346600	-14574.532	-876.465	3.966	1.623	114.26
	346800	-14656.174	-874.939	3.953	1.626	114.34
	347000	-14701.218	-872.803	4.034	1.639	114.40
	347200	-14760.338	-872.498	4.032	1.652	114.46
	347400	-14802.567	-871.887	3.976	1.654	114.53
	347600	-14822.273	-871.277	3.993	1.647	114.60
	347800	-14861.687	-870.667	3.961	1.646	114.66
	348000	-14878.578	-868.530	3.997	1.646	114.72
	348200	-14884.209	-864.563	3.985	1.653	114.80
	348400	-14903.915	-860.291	4.020	1.657	114.86
	348600	-14906.731	-858.154	4.018	1.666	114.92
	348800	-14909.546	-854.797	3.998	1.666	115.00
	349000	-14920.807	-851.440	4.005	1.664	115.06
	349200	-14909.546	-848.694	4.010	1.667	115.12
	349400	-14915.176	-845.642	3.972	1.667	115.19
	349600	-14903.915	-840.759	3.987	1.671	115.26
	349800	-14887.024	-837.097	4.017	1.678	115.32
	350000	-14887.024	-831.604	4.039	1.684	115.38
	350200	-14870.132	-824.585	4.026	1.694	115.46
	350400	-14850.426	-818.481	3.990	1.695	115.52
	350600	-14850.426	-813.293	3.982	1.691	115.58
	350800	-14816.643	-806.885	4.038	1.696	115.66
	351000	-14808.197	-801.697	4.007	1.700	115.72
	351200	-14791.306	-796.204	4.030	1.707	115.78
	351400	-14749.077	-790.710	4.028	1.715	115.85
	351600	-14740.631	-784.302	4.007	1.713	115.92
	351800	-14720.924	-780.334	3.992	1.714	115.98
	352000	-14692.772	-773.315	3.980	1.713	116.04
	352200	-14678.696	-766.296	4.001	1.716	116.12
	352400	-14644.913	-758.972	4.014	1.723	116.18
	352600	-14616.760	-752.869	4.078	1.740	116.24
	352800	-14605.499	-747.681	4.090	1.749	116.32
	353000	-14568.901	-742.798	4.076	1.758	116.38
	353200	-14549.194	-736.694	4.008	1.754	116.44
	353400	-14529.488	-732.117	3.914	1.734	116.51
	353600	-14501.335	-730.286	3.903	1.710	116.58
	353800	-14487.259	-725.403	3.917	1.707	116.64
	354000	-14450.661	-718.384	3.878	1.696	116.70
	354200	-14419.693	-712.891	3.911	1.698	116.78
	354400	-14402.802	-708.923	3.910	1.703	116.84
	354600	-14408.432	-704.041	3.902	1.711	116.90
	354800	-14414.062	-698.853	3.954	1.724	116.98
	355000	-14422.508	-693.359	4.005	1.736	117.04
	355200	-14408.432	-690.613	4.048	1.754	117.10
	355400	-14405.617	-685.730	4.057	1.769	117.17
	355600	-14388.725	-679.321	4.065	1.778	117.24
	355800	-14371.834	-673.523	4.068	1.786	117.30
	356000	-14377.464	-669.556	4.055	1.793	117.36
	356200	-14343.681	-666.199	4.078	1.791	117.44
	356400	-14329.605	-662.231	4.080	1.795	117.50
	356600	-14318.344	-657.654	4.060	1.801	117.56
	356800	-14287.376	-652.771	4.159	1.808	117.64
	357000	-14278.931	-648.804	4.126	1.824	117.70
	357200	-14250.778	-645.447	4.103	1.821	117.76
	357400	-14225.441	-643.005	4.107	1.817	117.83
	357600	-14202.919	-641.174	4.147	1.823	117.90
	357800	-14169.136	-638.123	4.089	1.821	117.96
	358000	-14152.245	-635.681	4.111	1.823	118.02
	358200	-14121.277	-632.629	4.128	1.825	118.10
	358400	-14095.940	-630.798	4.116	1.825	118.16
	358600	-14084.679	-628.052	4.114	1.826	118.22
	358800	-14056.526	-624.084	4.141	1.828	118.30
	359000	-14039.635	-621.338	4.107	1.828	118.36
	359200	-14017.113	-618.591	4.148	1.830	118.42
	359400	-13994.591	-618.286	4.142	1.840	118.49
	359600	-13977.699	-616.455	4.107	1.840	118.56
	359800	-13943.916	-612.488	4.136	1.838	118.62
	360000	-13927.025	-611.267	4.110	1.839	118.68
	360200	-13893.242	-612.488	4.129	1.841	118.76
	360400	-13867.905	-613.708	4.134	1.839	118.82
	360600	-13856.644	-614.624	4.166	1.851	118.88
	360800	-13817.230	-613.708	4.158	1.850	118.96
	361000	-13794.708	-611.267	4.136	1.849	119.02
	361200	-13772.186	-609.741	4.215	1.854	119.08
	361400	-13746.849	-607.910	4.154	1.859	119.15
	361600	-13732.773	-604.858	4.159	1.854	119.22
	361800	-13698.990	-601.807	4.144	1.852	119.28
	362000	-13679.283	-600.891	4.190	1.850	119.34
	362200	-13659.576	-599.365	4.146	1.848	119.42
	362400	-13622.978	-599.060	4.162	1.846	119.48
	362600	-13608.902	-598.755	4.233	1.857	119.54
	362800	-13580.750	-597.839	4.211	1.867	119.62
	363000	-13555.412	-597.229	4.169	1.862	119.68
	363200	-13538.521	-597.229	4.202	1.862	119.74
	363400	-13501.923	-599.670	4.180	1.858	119.81
	363600	-13487.846	-600.891	4.137	1.844	119.88
	363800	-13456.879	-602.417	4.116	1.832	119.94
	364000	-13428.726	-604.553	4.203	1.839	120.00
	364200	-13417.465	-606.689	4.170	1.846	120.08
	364400	-13380.867	-609.131	4.153	1.844	120.14
	364600	-13355.530	-611.267	4.154	1.841	120.20
	364800	-13324.562	-613.708	4.139	1.837	120.28
	365000	-13299.225	-614.624	4.133	1.832	120.34
	365200	-13276.703	-614.929	4.132	1.830	120.40
	365400	-13248.550	-616.150	4.119	1.821	120.47
	365600	-13223.213	-618.591	4.139	1.818	120.54
	365800	-13197.876	-621.033	4.131	1.816	120.60
	366000	-13169.724	-624.084	4.124	1.816	120.66
	366200	-13155.647	-631.104	4.164	1.819	120.74
	366400	-13124.680	-636.292	4.175	1.824	120.80
	366600	-13107.788	-636.902	4.116	1.823	120.86
	366800	-13074.005	-636.292	4.192	1.819	120.94
	367000	-13054.298	-637.512	4.198	1.828	121.00
	367200	-13037.407	-641.174	4.195	1.834	121.06
	367400	-13006.439	-646.057	4.248	1.832	121.13
	367600	-12986.732	-650.635	4.182	1.837	121.20
	367800	-12958.580	-653.992	4.186	1.828	121.26
	368000	-12944.504	-657.349	4.195	1.822	121.32
	368200	-12916.351	-660.095	4.232	1.824	121.40
	368400	-12882.568	-662.231	4.227	1.823	121.46
	368600	-12876.938	-666.809	4.196	1.820	121.52
	368800	-12840.340	-673.218	4.125	1.807	121.60
	369000	-12831.894	-679.321	4.145	1.794	121.66
	369200	-12798.111	-683.289	4.067	1.769	121.72
	369400	-12781.219	-686.340	4.127	1.763	121.79
	369600	-12758.698	-690.918	4.080	1.755	121.86
	369800	-12724.915	-694.275	4.148	1.763	121.92
	370000	-12713.654	-697.632	4.142	1.763	121.98
	370200	-12679.871	-701.599	4.088	1.752	122.06
	370400	-12657.349	-707.703	4.095	1.742	122.12
	370600	-12632.011	-712.891	4.122	1.737	122.18
	370800	-12609.489	-718.079	4.110	1.736	122.26
	371000	-12598.228	-723.267	4.137	1.736	122.32
	371200	-12564.445	-728.455	4.128	1.733	122.38
	371400	-12544.739	-733.032	4.218	1.750	122.45
	371600	-12516.586	-736.694	4.055	1.734	122.52
	371800	-12494.064	-742.798	4.051	1.711	122.58
	372000	-12471.542	-747.681	4.083	1.702	122.64
	372200	-12432.129	-756.226	4.076	1.697	122.72
	372400	-12418.053	-763.245	3.983	1.682	122.78
	372600	-12375.824	-769.348	3.945	1.657	122.84
	372800	-12364.563	-776.062	3.983	1.642	122.92
	373000	-12330.780	-785.828	3.967	1.642	122.98
	373200	-12316.704	-789.795	3.972	1.636	123.04
	373400	-12344.856	-792.236	3.919	1.625	123.11
	373600	-12356.117	-794.678	3.890	1.608	123.18
	373800	-12384.270	-798.645	3.886	1.594	123.24
	374000	-12384.270	-803.833	3.847	1.580	123.30
	374200	-12395.531	-812.683	3.849	1.569	123.38
	374400	-12389.900	-823.669	3.876	1.567	123.44
	374600	-12395.531	-832.825	3.863	1.565	123.50
	374800	-12384.270	-834.045	3.879	1.559	123.58
	375000	-12375.824	-836.182	3.808	1.545	123.64
	375200	-12375.824	-838.928	3.826	1.536	123.70
	375400	-12353.302	-840.149	3.878	1.537	123.77
	375600	-12356.117	-845.337	3.900	1.546	123.84
	375800	-12353.302	-849.915	3.855	1.542	123.90
	376000	-12353.302	-853.577	3.872	1.540	123.96
	376200	-12333.595	-856.323	3.856	1.543	124.04
	376400	-12330.780	-860.291	3.838	1.533	124.10
	376600	-12325.150	-865.784	3.831	1.528	124.16
	376800	-12302.628	-868.225	3.823	1.523	124.24
	377000	-12302.628	-867.615	3.870	1.522	124.30
	377200	-12302.628	-867.004	3.890	1.528	124.36
	377400	-12389.900	-867.920	3.852	1.531	124.43
	377600	-12437.759	-871.277	3.832	1.523	124.50
	377800	-12505.325	-875.244	3.836	1.518	124.56
	378000	-12567.261	-878.906	3.837	1.513	124.62
	378200	-12648.903	-881.958	3.841	1.513	124.70
	378400	-12758.698	-884.705	3.822	1.512	124.76
	378600	-12845.970	-889.587	3.861	1.514	124.82
	378800	-12936.058	-896.606	3.820	1.514	124.90
	379000	-12995.178	-901.184	3.813	1.503	124.96
	379200	-13059.929	-903.320	3.858	1.502	125.02
	379400	-13102.158	-906.372	3.849	1.510	125.09
	379600	-13150.017	-908.203	3.820	1.500	125.16
	379800	-13180.984	-909.119	3.837	1.509	125.22
	380000	-13226.028	-911.560	3.858	1.514	125.28
	380200	-13242.920	-911.560	3.854	1.521	125.36
	380400	-13282.333	-909.729	3.810	1.514	125.42
	380600	-13299.225	-906.677	3.837	1.511	125.48
	380800	-13318.932	-903.931	3.864	1.520	125.56
	381000	-13341.454	-900.269	3.867	1.527	125.62
	381200	-13355.530	-897.522	3.868	1.534	125.68
	381400	-13386.497	-895.691	3.895	1.544	125.75
	381600	-13397.758	-898.132	3.907	1.551	125.82
	381800	-13420.280	-899.963	3.856	1.553	125.88
	382000	-13431.541	-894.165	3.914	1.555	125.94
	382200	-13496.292	-887.756	3.903	1.562	126.02
	382400	-13546.967	-883.179	3.928	1.569	126.08
	382600	-13597.641	-879.517	3.909	1.569	126.14
	382800	-13625.793	-875.549	3.923	1.577	126.22
	383000	-13648.315	-871.277	3.929	1.583	126.28
	383200	-13684.914	-867.615	3.928	1.588	126.34
	383400	-13696.175	-867.004	3.931	1.593	126.41
	383600	-13727.142	-866.699	3.899	1.593	126.48
	383800	-13738.403	-862.427	3.985	1.607	126.54
	384000	-13769.371	-856.018	4.004	1.621	126.60
	384200	-13780.632	-849.915	4.010	1.628	126.68
	384400	-13811.600	-847.473	4.013	1.638	126.74
	384600	-13822.861	-843.201	4.017	1.643	126.80
	384800	-13839.752	-836.182	3.958	1.641	126.88
	385000	-13856.644	-829.773	4.026	1.643	126.94
	385200	-13870.720	-824.280	4.007	1.655	127.00
	385400	-13881.981	-819.397	4.026	1.660	127.07
	385600	-13893.242	-814.514	4.029	1.667	127.14
	385800	-13918.579	-809.937	4.026	1.670	127.20
	386000	-13921.394	-804.138	4.068	1.675	127.26
	386200	-13941.101	-797.729	4.049	1.683	127.34
	386400	-13946.732	-791.931	4.050	1.690	127.40
	386600	-13966.438	-784.607	4.084	1.700	127.46
	386800	-13972.069	-779.724	4.077	1.709	127.54
	387000	-13994.591	-773.010	3.999	1.708	127.60
	387200	-14005.852	-764.771	4.002	1.701	127.66
	387400	-14017.113	-759.277	3.960	1.702	127.73
	387600	-14025.558	-754.395	3.905	1.680	127.80
	387800	-14149.429	-751.648	3.932	1.675	127.86
	388000	-14276.115	-748.901	4.042	1.700	127.92
	388200	-14371.834	-747.070	4.010	1.714	128.00
	388400	-14464.737	-747.070	3.931	1.706	128.06
	388600	-14532.303	-745.544	3.944	1.700	128.12
	388800	-14602.684	-742.798	3.971	1.703	128.20
	389000	-14647.728	-741.577	3.973	1.709	128.26
	389200	-14706.848	-740.662	4.007	1.720	128.32
	389400	-14760.338	-738.220	3.980	1.725	128.39
	389600	-14864.502	-736.389	4.001	1.730	128.46
	389800	-14963.036	-735.474	4.015	1.740	128.52
	390000	-15050.308	-733.948	3.952	1.735	128.58
	390200	-15129.135	-730.896	3.995	1.733	128.66
	390400	-15224.854	-730.896	3.972	1.738	128.72
	390600	-15286.789	-730.286	3.991	1.743	128.78
	390800	-15359.985	-730.591	4.001	1.749	128.85
	391000	-15421.921	-728.760	4.007	1.755	128.92
	391200	-15472.595	-727.539	4.019	1.760	128.99
	391400	-15537.346	-726.624	4.058	1.765	129.05
	391600	-15579.575	-725.708	4.085	1.788	129.12
	391800	-15638.695	-723.267	4.064	1.794	129.18
	392000	-15675.293	-721.741	4.078	1.794	129.24
	392200	-15725.967	-723.572	4.081	1.800	129.32
	392400	-15759.750	-722.961	4.086	1.802	129.38
	392600	-15810.425	-721.741	4.103	1.804	129.44
	392800	-15832.947	-727.234	4.104	1.808	129.51
	393000	-15875.175	-731.812	4.120	1.815	129.58
	393200	-15906.143	-733.032	4.151	1.823	129.65
	393400	-15939.926	-727.539	4.142	1.833	129.71
	393600	-15973.709	-720.520	4.206	1.846	129.78
	393800	-16013.123	-717.163	4.184	1.857	129.84
	394000	-16052.536	-717.468	4.186	1.859	129.90
	394200	-16165.146	-717.773	4.184	1.858	129.98
	394400	-16260.864	-719.299	4.193	1.859	130.04
	394600	-16348.137	-723.267	4.230	1.868	130.10
	394800	-16424.149	-726.013	4.215	1.871	130.18
	395000	-16536.758	-729.065	4.240	1.877	130.24
	395200	-16646.553	-733.032	4.229	1.879	130.30
	395400	-16745.087	-738.831	4.200	1.877	130.37
	395600	-16829.544	-744.019	4.214	1.874	130.44
	395800	-16908.371	-746.155	4.224	1.878	130.50
	396000	-16978.752	-749.817	4.220	1.874	130.56
	396200	-17049.133	-752.563	4.230	1.876	130.64
	396400	-17099.808	-756.531	4.206	1.873	130.70
	396600	-17161.743	-759.888	4.214	1.875	130.76
	396800	-17209.602	-762.939	4.223	1.877	130.84
	397000	-17249.016	-766.602	4.232	1.881	130.90
	397200	-17294.060	-768.433	4.206	1.875	130.96
	397400	-17333.473	-771.790	4.214	1.871	131.03
	397600	-17361.626	-776.062	4.229	1.873	131.10
	397800	-17403.854	-778.503	4.195	1.871	131.16
	398000	-17426.376	-778.503	4.081	1.848	131.22
	398200	-17448.898	-778.809	4.088	1.837	131.29
	398400	-17465.790	-780.640	4.072	1.826	131.36
	398600	-17485.497	-783.081	4.094	1.827	131.43
	398800	-17499.573	-788.574	4.070	1.819	131.50
	399000	-17522.095	-794.067	4.037	1.815	131.56
	399200	-17519.279	-796.204	4.040	1.798	131.62
	399400	-17533.356	-795.898	4.084	1.805	131.69
	399600	-17527.725	-797.729	4.042	1.804	131.76
	399800	-17536.171	-800.171	4.024	1.796	131.82
	400000	-17524.910	-801.392	4.034	1.789	131.88
	400200	-17524.910	-802.917	4.051	1.790	131.96
	400400	-17513.649	-804.138	4.069	1.797	132.02
	400600	-17510.834	-805.969	4.052	1.794	132.08
	400800	-17491.127	-808.105	4.019	1.786	132.16
	401000	-17488.312	-812.378	4.034	1.782	132.22
	401200	-17465.790	-816.345	4.029	1.779	132.28
	401400	-17465.790	-822.144	4.028	1.775	132.35
	401600	-17434.822	-825.806	4.041	1.773	132.42
	401800	-17426.376	-827.026	4.083	1.781	132.48
	402000	-17403.854	-828.247	4.052	1.782	132.54
	402200	-17384.148	-830.383	4.016	1.780	132.62
	402400	-17353.180	-831.909	4.013	1.767	132.68
	402600	-17336.288	-834.656	3.997	1.754	132.74
	402800	-17308.136	-836.487	3.987	1.747	132.82
	403000	-17277.168	-838.623	4.002	1.741	132.88
	403200	-17254.646	-841.675	4.029	1.741	132.94
	403400	-17218.048	-845.032	3.981	1.736	133.01
	403600	-17203.972	-848.083	3.865	1.719	133.08
	403800	-17161.743	-848.694	3.883	1.696	133.14
	404000	-17136.406	-851.135	3.867	1.687	133.21
	404200	-17099.808	-855.103	3.875	1.683	133.28
	404400	-17071.655	-856.628	3.962	1.693	133.34
	404600	-17026.611	-858.765	3.973	1.704	133.40
	404800	-17004.089	-863.037	3.924	1.703	133.48
	405000	-16959.045	-867.310	3.904	1.690	133.54
	405200	-16928.078	-871.887	3.958	1.686	133.60
	405400	-16888.664	-876.160	3.927	1.685	133.67
	405600	-16854.881	-879.211	3.954	1.687	133.74
	405800	-16804.207	-883.179	3.985	1.691	133.80
	406000	-16773.239	-887.146	3.943	1.687	133.86
	406200	-16733.826	-897.522	4.001	1.691	133.94
	406400	-16685.966	-904.236	4.003	1.696	134.00
	406600	-16652.184	-905.457	4.024	1.700	134.06
	406800	-16607.140	-906.677	4.034	1.697	134.14
	407000	-16570.541	-910.950	4.042	1.698	134.20
	407200	-16519.867	-915.222	4.012	1.696	134.26
	407400	-16477.638	-917.664	3.977	1.681	134.33
	407600	-16426.964	-919.189	3.986	1.672	134.40
	407800	-16395.996	-923.157	3.982	1.668	134.46
	408000	-16336.876	-928.650	3.953	1.658	134.52
	408200	-16300.278	-933.533	3.986	1.651	134.60
	408400	-16249.603	-938.416	4.023	1.656	134.66
	408600	-16218.636	-942.078	4.045	1.666	134.72
	408800	-16159.515	-945.129	4.048	1.671	134.79
	409000	-16122.917	-948.181	4.016	1.671	134.86
	409200	-16069.427	-952.148	4.000	1.658	134.93
	409400	-16024.384	-957.947	3.979	1.644	134.99
	409600	-15979.340	-962.219	3.964	1.630	135.06
	409800	-15928.665	-965.881	3.953	1.621	135.12
	410000	-15886.436	-971.680	3.920	1.606	135.18
	410200	-15827.316	-977.478	3.923	1.596	135.26
	410400	-15787.903	-982.666	3.908	1.584	135.32
	410600	-15734.413	-987.854	3.863	1.574	135.38
	410800	-15695.000	-993.042	3.853	1.556	135.46
	411000	-15635.880	-998.230	3.943	1.561	135.52
	411200	-15596.466	-1002.502	3.909	1.564	135.58
	411400	-15551.422	-1004.639	3.911	1.559	135.65
	411600	-15495.117	-1005.859	3.844	1.545	135.72
	411800	-15447.258	-1005.554	3.902	1.541	135.78
	412000	-15399.399	-1006.165	3.885	1.544	135.84
	412200	-15362.801	-1008.911	3.870	1.545	135.92
	412400	-15303.680	-1012.878	3.832	1.526	135.98
	412600	-15275.528	-1012.268	3.799	1.516	136.04
	412800	-15213.593	-1009.216	3.799	1.506	136.12
	413000	-15174.179	-1007.385	3.772	1.501	136.18
	413200	-15120.689	-1006.165	3.871	1.513	136.24
	413400	-15072.830	-1004.028	3.746	1.502	136.31
	413600	-15033.417	-1000.366	3.746	1.487	136.38
	413800	-14968.666	-996.399	3.715	1.473	136.44
	414000	-14926.437	-995.178	3.725	1.471	136.50
	414200	-14872.948	-993.347	3.696	1.467	136.57
	414400	-14839.165	-990.295	3.672	1.454	136.64
	414600	-14782.860	-987.244	3.687	1.448	136.71
	414800	-14735.001	-985.413	3.704	1.452	136.78
	415000	-14689.957	-984.497	3.734	1.458	136.84
	415200	-14639.282	-982.056	3.742	1.465	136.90
	415400	-14594.238	-977.478	3.748	1.473	136.97
	415600	-14532.303	-971.985	3.719	1.472	137.04
	415800	-14498.520	-965.881	3.737	1.471	137.10
	416000	-14430.954	-960.999	3.715	1.471	137.16
	416200	-14397.171	-956.116	3.737	1.477	137.24
	416400	-14343.681	-951.843	3.769	1.485	137.30
	416600	-14293.007	-946.350	3.760	1.490	137.36
	416800	-14256.409	-939.636	3.773	1.495	137.44
	417000	-14194.473	-933.228	3.795	1.501	137.50
	417200	-14160.690	-926.514	3.853	1.519	137.56
	417400	-14110.016	-922.241	3.829	1.526	137.63
	417600	-14053.711	-916.443	3.837	1.528	137.70
	417800	-14017.113	-909.729	3.890	1.544	137.76
	418000	-13955.177	-903.015	3.917	1.552	137.82
	418200	-13915.764	-895.691	3.978	1.575	137.90
	418400	-13859.459	-888.672	3.966	1.590	137.96
	418600	-13822.861	-881.958	4.003	1.596	138.02
	418800	-13775.002	-874.939	4.034	1.614	138.10
	419000	-13715.881	-868.835	4.054	1.630	138.16
	419200	-13670.837	-862.732	4.031	1.640	138.22
	419400	-13620.163	-855.408	4.102	1.654	138.29
	419600	-13572.304	-848.083	4.024	1.653	138.36
	419800	-13521.629	-840.759	3.975	1.643	138.42
	420000	-13479.401	-832.214	3.997	1.631	138.49
	420200	-13434.357	-823.669	4.069	1.646	138.56
	420400	-13380.867	-815.430	4.077	1.661	138.62
	420600	-13333.008	-807.190	4.073	1.667	138.68
	420800	-13282.333	-798.645	4.144	1.680	138.76
	421000	-13237.289	-791.626	4.103	1.701	138.82
	421200	-13183.800	-783.386	4.098	1.696	138.88
	421400	-13144.386	-776.978	4.095	1.697	138.95
	421600	-13099.342	-768.738	4.128	1.704	139.02
	421800	-13040.222	-760.193	4.098	1.709	139.08
	422000	-13006.439	-751.648	4.026	1.703	139.15
	422200	-12955.765	-741.577	4.069	1.698	139.22
	422400	-12916.351	-730.896	4.076	1.707	139.28
	422600	-12865.677	-722.961	4.098	1.716	139.34
	422800	-12812.187	-714.417	4.118	1.730	139.42
	423000	-12778.404	-706.177	4.135	1.741	139.48
	423200	-12724.915	-697.327	4.113	1.743	139.54
	423400	-12685.501	-690.308	4.129	1.749	139.61
	423600	-12632.011	-681.763	4.149	1.758	139.68
	423800	-12598.228	-671.082	4.195	1.772	139.74
	424000	-12556.000	-661.926	4.107	1.774	139.80
	424200	-12505.325	-652.466	4.085	1.763	139.88
	424400	-12465.912	-642.090	4.108	1.765	139.94
	424600	-12412.422	-634.155	4.081	1.764	140.00
	424800	-12373.009	-625.610	4.118	1.768	140.07
	425000	-12325.150	-619.507	4.088	1.775	140.14
	425200	-12282.921	-612.183	4.103	1.774	140.21
	425400	-12237.877	-604.248	4.066	1.780	140.27
	425600	-12184.387	-595.703	4.076	1.779	140.34
	425800	-12156.235	-586.243	4.126	1.791	140.40
	426000	-12108.376	-576.477	4.120	1.800	140.46
	426200	-12066.147	-567.932	4.163	1.805	140.54
	426400	-12012.657	-562.134	4.186	1.819	140.60
	426600	-11981.689	-556.030	4.180	1.829	140.66
	426800	-11939.461	-548.096	4.173	1.835	140.74
	427000	-11888.786	-541.382	4.164	1.837	140.80
	427200	-11846.558	-534.058	4.131	1.834	140.86
	427400	-11795.883	-525.818	4.106	1.829	140.93
	427600	-11764.915	-519.104	4.126	1.828	141.00
	427800	-11717.056	-514.526	4.056	1.805	141.06
	428000	-11683.273	-509.338	4.067	1.802	141.12
	428200	-11641.045	-508.118	4.005	1.801	141.20
	428400	-11593.185	-505.981	3.999	1.788	141.26
	428600	-11562.218	-502.930	4.017	1.783	141.32
	428800	-11517.174	-501.099	4.070	1.794	141.40
	429000	-11491.837	-498.352	4.074	1.806	141.46
	429200	-11435.532	-496.521	4.026	1.807	141.52
	429400	-11407.379	-494.080	4.048	1.803	141.59
	429600	-11365.150	-491.638	4.065	1.805	141.66
	429800	-11325.737	-489.502	4.080	1.811	141.72
	430000	-11294.769	-487.671	4.019	1.804	141.78
	430200	-11244.095	-486.450	4.088	1.803	141.85
	430400	-11218.758	-487.976	4.024	1.798	141.92
	430600	-11168.083	-490.112	4.008	1.789	141.99
	430800	-11142.746	-491.638	4.021	1.791	142.06
	431000	-11108.963	-495.605	4.089	1.804	142.12
	431200	-11066.734	-500.793	4.120	1.807	142.18
	431400	-11035.767	-502.625	4.063	1.797	142.25
	431600	-11010.429	-504.456	4.094	1.796	142.32
	431800	-11063.919	-509.338	4.066	1.791	142.38
	432000	-11182.159	-517.273	4.081	1.787	142.44
	432200	-11300.400	-529.175	4.119	1.790	142.51
	432400	-11387.672	-541.382	4.083	1.785	142.58
	432600	-11449.608	-550.842	4.054	1.777	142.65
	432800	-11514.359	-559.387	4.070	1.773	142.72
	433000	-11548.141	-566.101	4.030	1.765	142.78
	433200	-11593.185	-576.172	4.022	1.753	142.84
	433400	-11621.338	-585.022	4.018	1.746	142.91
	433600	-11646.675	-593.567	4.003	1.740	142.98
	433800	-11686.089	-602.112	4.019	1.723	143.04
	434000	-11722.687	-610.962	4.105	1.719	143.10
	434200	-11818.405	-621.033	4.041	1.727	143.18
	434400	-11880.341	-630.493	4.013	1.726	143.24
	434600	-11950.722	-638.123	4.101	1.721	143.30
	434800	-11990.135	-647.888	4.159	1.736	143.38
	435000	-12035.179	-658.875	4.114	1.747	143.44
	435200	-12083.038	-668.640	4.101	1.736	143.50
	435400	-12111.191	-679.626	4.088	1.724	143.57
	435600	-12150.604	-692.749	4.103	1.719	143.64
	435800	-12181.572	-704.651	4.060	1.710	143.70
	436000	-12201.279	-711.975	4.084	1.702	143.76
	436200	-12223.801	-720.825	4.056	1.691	143.84
	436400	-12246.323	-730.286	4.117	1.698	143.90
	436600	-12280.106	-739.441	4.096	1.702	143.96
	436800	-12288.551	-750.122	4.120	1.692	144.04
	437000	-12299.812	-761.414	4.057	1.678	144.10
	437200	-12319.519	-769.958	3.980	1.652	144.16
	437400	-12327.965	-776.672	4.108	1.651	144.23
	437600	-12350.487	-783.386	4.072	1.654	144.30
	437800	-12418.053	-790.710	3.990	1.647	144.36
	438000	-12491.249	-798.950	4.028	1.640	144.43
	438200	-12561.630	-811.157	3.967	1.620	144.50
	438400	-12632.011	-823.059	3.951	1.603	144.56
	438600	-12722.099	-834.351	3.968	1.597	144.62
	438800	-12772.774	-842.896	4.010	1.601	144.70
	439000	-12834.709	-850.220	3.985	1.601	144.76
	439200	-12885.384	-855.408	3.947	1.588	144.82
	439400	-12924.797	-864.563	3.951	1.576	144.89
	439600	-12969.841	-871.277	3.890	1.566	144.96
	439800	-13000.809	-879.517	3.920	1.555	145.02
	440000	-13051.483	-888.367	3.882	1.546	145.08
	440200	-13082.451	-893.250	3.874	1.540	145.16
	440400	-13107.788	-897.217	3.843	1.537	145.22
	440600	-13135.941	-899.963	3.951	1.538	145.28
	440800	-13152.832	-903.015	3.844	1.528	145.35
	441000	-13189.430	-905.457	3.798	1.514	145.42
	441200	-13200.691	-905.762	3.871	1.519	145.49
	441400	-13228.844	-906.982	3.873	1.522	145.55
	441600	-13372.421	-909.119	3.874	1.523	145.62
	441800	-13561.043	-915.222	3.865	1.519	145.68
	442000	-13777.817	-925.598	3.850	1.516	145.74
	442200	-13977.699	-934.448	3.836	1.512	145.82
	442400	-14132.538	-944.824	3.895	1.514	145.88
	442600	-14284.561	-953.369	3.891	1.523	145.94
	442800	-14405.617	-961.304	3.878	1.526	146.01
	443000	-14526.672	-966.797	3.864	1.520	146.08
	443200	-14647.728	-972.595	3.862	1.523	146.15
	443400	-14740.631	-975.342	3.844	1.514	146.21
	443600	-14847.610	-978.394	3.838	1.514	146.28
	443800	-14923.622	-981.140	3.850	1.515	146.34
	444000	-15019.341	-982.361	3.852	1.519	146.40
	444200	-15129.135	-982.666	3.859	1.527	146.48
	444400	-15222.038	-982.361	3.890	1.535	146.54
	444600	-15314.941	-982.361	3.889	1.542	146.60
	444800	-15407.845	-983.582	3.857	1.541	146.68
	445000	-15481.041	-986.023	3.880	1.541	146.74
	445200	-15571.129	-986.023	3.893	1.544	146.80
	445400	-15647.141	-985.413	3.911	1.553	146.87
	445600	-15728.783	-984.192	3.889	1.559	146.94
	445800	-15799.164	-982.971	3.909	1.560	147.00
	446000	-15863.914	-982.361	3.886	1.560	147.06
	446200	-15942.741	-980.835	3.865	1.564	147.14
	446400	-16001.862	-978.088	3.861	1.560	147.20
	446600	-16058.167	-977.783	3.880	1.564	147.26
	446800	-16122.917	-975.037	3.933	1.577	147.34
	447000	-16176.407	-972.290	3.938	1.584	147.40
	447200	-16238.342	-971.069	3.936	1.599	147.46
	447400	-16291.832	-968.323	3.985	1.607	147.53
	447600	-16336.876	-967.102	3.915	1.609	147.60
	447800	-16393.181	-967.712	3.915	1.611	147.66
	448000	-16452.301	-967.102	3.968	1.618	147.72
	448200	-16556.465	-962.219	3.985	1.620	147.79
	448400	-16674.706	-957.642	4.016	1.638	147.86
	448600	-16764.793	-953.979	4.026	1.652	147.93
	448800	-16860.512	-953.064	4.031	1.658	148.00
	449000	-16950.600	-954.285	4.012	1.662	148.06
	449200	-17020.981	-957.336	4.032	1.668	148.12
	449400	-17096.992	-955.200	4.038	1.674	148.19
	449600	-17161.743	-948.486	3.966	1.669	148.26
	449800	-17223.679	-941.467	4.043	1.680	148.32
	450000	-17288.429	-936.890	4.086	1.696	148.39
	450200	-17347.549	-931.396	4.083	1.714	148.46
	450400	-17398.224	-924.988	4.040	1.707	148.52
	450600	-17462.975	-919.495	4.012	1.702	148.58
	450800	-17510.834	-914.001	4.036	1.708	148.66
	451000	-17578.400	-909.729	3.993	1.711	148.72
	451200	-17671.303	-905.457	4.012	1.710	148.78
	451400	-17752.945	-902.405	4.013	1.714	148.85
	451600	-17851.479	-900.574	4.004	1.714	148.92
	451800	-17947.197	-899.963	4.005	1.716	148.98
	452000	-18048.546	-898.743	4.020	1.718	149.05
	452200	-18141.449	-897.827	4.066	1.730	149.12
	452400	-18214.645	-896.912	4.062	1.742	149.18
	452600	-18299.103	-895.691	4.052	1.748	149.24
	452800	-18389.191	-894.165	4.047	1.751	149.32
	453000	-18451.126	-891.113	4.078	1.758	149.38
	453200	-18535.583	-887.451	4.042	1.768	149.44
	453400	-18614.410	-884.094	4.059	1.768	149.51
	453600	-18670.715	-884.094	4.005	1.764	149.58
	453800	-18746.727	-881.958	4.020	1.762	149.64
	454000	-18822.739	-878.601	4.083	1.769	149.71
	454200	-18867.783	-876.770	4.093	1.786	149.78
	454400	-18929.718	-876.465	4.142	1.797	149.84
	454600	-19005.730	-871.277	4.160	1.815	149.90
	454800	-19053.589	-868.835	4.122	1.830	149.98
	455000	-19129.601	-868.835	4.081	1.818	150.04
	455200	-19199.982	-868.835	4.120	1.818	150.10
	455400	-19264.732	-868.225	4.130	1.825	150.18
	455600	-19332.298	-869.141	4.156	1.830	150.24
	455800	-19453.354	-872.192	4.104	1.823	150.30
	456000	-19551.888	-876.770	4.091	1.816	150.36
	456200	-19650.421	-881.653	4.105	1.814	150.44
	456400	-19754.585	-886.230	4.079	1.817	150.50
	456600	-19827.782	-890.503	4.125	1.816	150.56
	456800	-19912.239	-894.775	4.163	1.827	150.64
	457000	-20010.773	-898.743	4.174	1.840	150.70
	457200	-20092.415	-901.184	4.142	1.837	150.76
	457400	-20190.948	-905.151	4.114	1.831	150.83
	457600	-20281.036	-911.560	4.116	1.830	150.90
	457800	-20351.418	-914.001	4.140	1.826	150.96
	458000	-20441.505	-918.579	4.124	1.828	151.03
	458200	-20523.148	-921.326	4.087	1.823	151.10
	458400	-20585.083	-924.683	4.140	1.827	151.16
	458600	-20663.910	-929.565	4.164	1.835	151.22
	458800	-20739.922	-935.059	4.176	1.835	151.29
	459000	-20796.227	-944.214	4.041	1.813	151.36
	459200	-20852.531	-952.148	4.092	1.800	151.43
	459400	-20931.358	-957.947	4.119	1.800	151.49
	459600	-20979.218	-965.881	4.071	1.797	151.56
	459800	-21038.338	-972.290	4.095	1.794	151.62
	460000	-21103.088	-978.394	4.096	1.796	151.69
	460200	-21150.948	-986.023	4.122	1.800	151.76
	460400	-21204.437	-996.094	4.097	1.797	151.82
	460600	-21266.373	-1002.502	4.102	1.788	151.88
	460800	-21317.047	-1009.521	4.178	1.801	151.96
	461000	-21370.537	-1016.541	4.180	1.813	152.02
	461200	-21438.103	-1023.865	4.134	1.810	152.08
	461400	-21497.223	-1032.410	4.146	1.804	152.15
	461600	-21553.528	-1041.565	4.129	1.798	152.22
	461800	-21612.648	-1051.636	4.121	1.788	152.28
	462000	-21668.953	-1061.401	4.122	1.780	152.35
	462200	-21719.627	-1071.472	4.097	1.776	152.42
	462400	-21773.117	-1081.543	4.107	1.770	152.48
	462600	-21829.422	-1091.003	4.189	1.777	152.54
	462800	-21874.466	-1100.769	4.178	1.779	152.62
	463000	-21913.879	-1110.840	4.155	1.776	152.68
	463200	-21973.000	-1122.131	4.115	1.770	152.74
	463400	-22018.044	-1129.761	4.073	1.750	152.82
	463600	-22051.826	-1136.780	4.026	1.730	152.88
	463800	-22085.609	-1144.714	3.991	1.703	152.94
	464000	-22136.284	-1155.090	4.001	1.691	153.01
	464200	-22170.067	-1169.739	4.013	1.687	153.07
	464400	-22201.035	-1179.810	4.028	1.693	153.14
	464600	-22243.263	-1187.439	4.031	1.698	153.21
	464800	-22277.046	-1194.153	4.014	1.686	153.28
	465000	-22296.753	-1201.782	3.978	1.667	153.34
	465200	-22338.982	-1211.548	3.935	1.654	153.40
	465400	-22395.287	-1221.313	3.882	1.631	153.47
	465600	-22426.254	-1232.300	3.790	1.594	153.54
	465800	-22448.776	-1242.065	3.787	1.566	153.60
	466000	-22485.374	-1250.916	3.737	1.545	153.66
	466200	-22519.157	-1260.681	3.738	1.527	153.74
	466400	-22538.864	-1269.226	3.841	1.532	153.80
	466600	-22569.832	-1276.550	3.909	1.553	153.86
	466800	-22603.615	-1284.790	3.835	1.561	153.94
	467000	-22626.137	-1294.861	3.791	1.537	154.00
	467200	-22637.398	-1303.101	3.827	1.530	154.06
	467400	-22676.811	-1312.561	3.795	1.523	154.14
	467600	-22704.964	-1321.106	3.795	1.517	154.20
	467800	-22721.855	-1325.989	3.821	1.514	154.26
	468000	-22735.931	-1333.313	3.847	1.524	154.33
	468200	-22764.084	-1340.637	3.847	1.527	154.40
	468400	-22789.421	-1342.773	3.864	1.528	154.46
	468600	-22809.128	-1347.351	3.836	1.527	154.52
	468800	-22831.650	-1351.929	3.807	1.518	154.60
	469000	-22882.324	-1354.675	3.782	1.505	154.66
	469200	-22966.782	-1360.779	3.791	1.505	154.72
	469400	-23056.870	-1367.493	3.803	1.495	154.79
	469600	-23132.881	-1372.681	3.757	1.493	154.86
	469800	-23217.339	-1376.953	3.738	1.480	154.92
	470000	-23284.904	-1382.141	3.687	1.463	154.99
	470200	-23341.209	-1390.381	3.738	1.462	155.06
	470400	-23408.775	-1393.433	3.788	1.473	155.12
	470600	-23467.896	-1395.264	3.712	1.471	155.18
	470800	-23512.939	-1395.569	3.708	1.459	155.26
	471000	-23560.799	-1398.010	3.753	1.461	155.32
	471200	-23614.288	-1400.146	3.766	1.467	155.38
	471400	-23673.409	-1402.893	3.751	1.472	155.45
	471600	-23704.376	-1403.198	3.807	1.485	155.52
	471800	-23749.420	-1406.555	3.754	1.482	155.58
	472000	-23791.649	-1408.997	3.632	1.456	155.65
	472200	-23825.432	-1410.828	3.709	1.444	155.72
	472400	-23845.139	-1411.743	3.663	1.443	155.78
	472600	-23870.476	-1412.048	3.689	1.442	155.84
	472800	-23895.813	-1412.964	3.669	1.443	155.92
	473000	-23912.704	-1412.048	3.571	1.433	155.98
	473200	-23909.889	-1409.607	3.624	1.416	156.04
	473400	-23921.150	-1407.776	3.705	1.433	156.12
	473600	-23929.596	-1405.945	3.680	1.444	156.18
	473800	-23918.335	-1401.367	3.707	1.453	156.24
	474000	-23907.074	-1396.484	3.727	1.467	156.31
	474200	-23898.628	-1392.822	3.774	1.481	156.38
	474400	-23884.552	-1390.686	3.699	1.475	156.44
	474600	-23856.400	-1387.024	3.664	1.459	156.50
	474800	-23825.432	-1383.362	3.703	1.463	156.57
	475000	-23791.649	-1376.953	3.722	1.473	156.64
	475200	-23755.051	-1369.934	3.722	1.479	156.71
	475400	-23701.561	-1362.610	3.750	1.486	156.78
	475600	-23642.441	-1358.032	3.761	1.494	156.84
	475800	-23588.951	-1352.539	3.694	1.500	156.90
	476000	-23552.353	-1344.910	3.706	1.491	156.97
	476200	-23484.787	-1338.196	3.697	1.490	157.04
	476400	-23405.960	-1331.177	3.702	1.492	157.10
	476600	-23344.025	-1322.937	3.757	1.510	157.16
	476800	-23276.459	-1313.171	3.707	1.511	157.24
	477000	-23197.632	-1306.458	3.705	1.509	157.30
	477200	-23107.544	-1298.218	3.714	1.515	157.36
	477400	-23023.087	-1287.537	3.721	1.520	157.44
	477600	-22941.444	-1277.771	3.725	1.526	157.50
	477800	-22854.172	-1264.954	3.746	1.535	157.56
	478000	-22766.899	-1252.136	3.748	1.542	157.63
	478200	-22662.735	-1239.929	3.727	1.542	157.70
	478400	-22550.125	-1228.943	3.763	1.547	157.76
	478600	-22451.591	-1217.041	3.795	1.564	157.82
	478800	-22327.721	-1205.750	3.834	1.579	157.90
	479000	-22217.926	-1193.542	3.850	1.597	157.96
	479200	-22105.316	-1181.030	3.859	1.607	158.02
	479400	-21981.445	-1168.518	3.856	1.616	158.09
	479600	-21860.390	-1154.175	3.883	1.625	158.16
	479800	-21730.888	-1141.052	3.887	1.634	158.22
	480000	-21592.941	-1127.319	3.898	1.642	158.29
	480200	-21471.886	-1112.671	3.916	1.654	158.35
	480400	-21339.569	-1098.938	3.913	1.664	158.42
	480600	-21198.807	-1085.815	3.927	1.667	158.49
	480800	-21046.783	-1073.914	3.864	1.663	158.56
	481000	-20903.206	-1059.570	3.898	1.665	158.62
	481200	-20759.628	-1047.363	3.848	1.667	158.68
	481400	-20601.974	-1033.936	3.844	1.664	158.76
	481600	-20441.505	-1020.813	3.882	1.673	158.82
	481800	-20283.852	-1004.333	3.882	1.682	158.88
	482000	-20131.828	-986.938	3.929	1.696	158.95
	482200	-19971.359	-969.849	3.916	1.706	159.01
	482400	-19808.075	-953.064	3.931	1.715	159.08
	482600	-19644.791	-936.890	3.943	1.722	159.15
	482800	-19492.767	-924.072	3.966	1.730	159.22
	483000	-19343.559	-911.255	3.951	1.740	159.28
	483200	-19191.536	-896.606	3.940	1.742	159.34
	483400	-19031.067	-884.094	3.937	1.744	159.41
	483600	-18879.044	-872.498	3.923	1.743	159.48
	483800	-18741.096	-862.427	3.907	1.740	159.54
	484000	-18608.780	-852.966	3.922	1.739	159.61
	484200	-18468.018	-844.421	3.913	1.736	159.68
	484400	-18324.440	-838.623	3.944	1.743	159.74
	484600	-18183.678	-828.857	3.986	1.749	159.80
	484800	-18048.546	-820.618	3.998	1.763	159.88
	485000	-17924.675	-812.073	3.962	1.764	159.94
	485200	-17797.989	-805.969	3.936	1.764	160.00
	485400	-17665.672	-797.729	3.956	1.762	160.07
	485600	-17538.986	-791.931	3.933	1.761	160.14
	485800	-17417.931	-788.269	3.967	1.759	160.20
	486000	-17302.505	-784.302	3.973	1.763	160.27
	486200	-17181.450	-779.114	3.991	1.765	160.34
	486400	-17066.025	-773.010	3.947	1.759	160.40
	486600	-16947.784	-769.653	4.005	1.768	160.46
	486800	-16837.990	-769.043	4.019	1.778	160.54
	487000	-16739.456	-766.907	4.034	1.784	160.60
	487200	-16635.292	-763.245	4.001	1.780	160.66
	487400	-16525.497	-759.583	4.034	1.776	160.74
	487600	-16415.703	-757.141	4.028	1.778	160.80
	487800	-16305.908	-757.446	4.020	1.776	160.86
	488000	-16210.190	-759.583	4.005	1.773	160.93
	488200	-16114.471	-759.277	4.066	1.780	161.00
	488400	-16013.123	-760.193	4.127	1.801	161.06
	488600	-15908.958	-760.193	4.165	1.798	161.12
	488800	-15821.686	-761.108	4.168	1.810	161.20
	489000	-15731.598	-765.381	4.123	1.808	161.26
	489200	-15647.141	-768.127	4.166	1.806	161.32
	489400	-15548.607	-770.569	4.113	1.795	161.40
	489600	-15455.704	-773.010	4.057	1.779	161.46
	489800	-15376.877	-776.062	4.064	1.766	161.52
	490000	-15298.050	-780.640	4.057	1.755	161.59
	490200	-15213.593	-784.302	4.077	1.749	161.66
	490400	-15126.320	-789.185	3.970	1.736	161.72
	490600	-15039.047	-791.016	4.070	1.722	161.78
	490800	-14960.220	-793.762	4.072	1.721	161.85
	491000	-14887.024	-798.035	4.021	1.717	161.92
	491200	-14808.197	-803.528	4.017	1.703	161.99
	491400	-14729.370	-807.190	3.983	1.689	162.06
	491600	-14658.989	-811.157	3.954	1.675	162.12
	491800	-14582.977	-816.345	4.018	1.671	162.18
	492000	-14515.411	-823.364	4.120	1.694	162.25
	492200	-14445.030	-830.994	4.126	1.705	162.32
	492400	-14369.019	-839.844	3.977	1.677	162.38
	492600	-14298.637	-847.473	4.016	1.667	162.44
	492800	-14233.887	-854.797	3.927	1.645	162.51
	493000	-14163.506	-861.206	3.991	1.630	162.58
	493200	-14104.385	-863.647	3.978	1.627	162.65
	493400	-14034.004	-867.920	3.855	1.605	162.72
	493600	-13966.438	-868.530	3.946	1.596	162.78
	493800	-13907.318	-871.277	4.012	1.610	162.84
	494000	-13842.567	-874.939	4.016	1.613	162.91
	494200	-13780.632	-880.737	4.010	1.610	162.98
	494400	-13713.066	-885.925	3.994	1.605	163.04
	494600	-13659.576	-889.587	4.002	1.605	163.10
	494800	-13600.456	-892.334	3.991	1.597	163.18
	495000	-13549.782	-896.301	4.029	1.598	163.24
	495200	-13487.846	-900.269	3.979	1.589	163.30
	495400	-13437.172	-904.236	3.898	1.564	163.38
	495600	-13389.313	-907.288	3.889	1.549	163.44
	495800	-13347.084	-909.424	3.802	1.529	163.50
	496000	-13293.594	-907.898	3.785	1.509	163.57
	496200	-13231.659	-908.203	3.810	1.502	163.64
	496400	-13178.169	-906.982	3.779	1.495	163.70
	496600	-13130.310	-905.457	3.796	1.491	163.76
	496800	-13082.451	-903.931	3.825	1.492	163.84
	497000	-13037.407	-902.710	3.822	1.494	163.90
	497200	-12981.102	-901.794	3.806	1.495	163.96
	497400	-12927.612	-898.132	3.808	1.493	164.04
	497600	-12882.568	-895.996	3.809	1.495	164.10
	497800	-12840.340	-893.250	3.823	1.495	164.16
	498000	-12786.850	-890.808	3.856	1.499	164.23
	498200	-12736.176	-889.893	3.826	1.497	164.30
	498400	-12699.577	-888.977	3.757	1.488	164.36
	498600	-12657.349	-887.146	3.801	1.486	164.42
	498800	-12612.305	-885.010	3.851	1.493	164.50
	499000	-12567.261	-883.789	3.803	1.499	164.56
	499200	-12516.586	-877.991	3.907	1.514	164.62
	499400	-12477.173	-870.361	3.958	1.537	164.70
	499600	-12494.064	-863.953	3.903	1.543	164.76
	499800	-12519.402	-858.765	3.910	1.543	164.82
	500000	-12522.217	-855.408	3.893	1.540	164.89
	500200	-12522.217	-855.713	3.872	1.535	164.96
	500400	-12527.847	-853.271	3.860	1.532	165.02
	500600	-12530.663	-849.304	3.900	1.540	165.08
	500800	-12539.108	-841.675	3.914	1.550	165.16
	501000	-12533.478	-836.182	3.869	1.551	165.22
	501200	-12522.217	-830.688	4.080	1.588	165.28
	501400	-12513.771	-824.890	4.067	1.614	165.36
	501600	-12516.586	-819.397	4.097	1.631	165.42
	501800	-12508.141	-814.209	4.103	1.643	165.48
	502000	-12499.695	-806.580	3.961	1.629	165.55
	502200	-12491.249	-798.340	4.040	1.617	165.62
	502400	-12482.803	-792.236	4.021	1.624	165.68
	502600	-12477.173	-789.490	4.042	1.625	165.74
	502800	-12474.358	-785.828	4.048	1.634	165.82
	503000	-12463.097	-780.334	4.071	1.645	165.88
	503200	-12446.205	-773.010	4.102	1.655	165.94
	503400	-12432.129	-766.602	4.064	1.661	166.02
	503600	-12426.498	-760.803	4.088	1.663	166.08
	503800	-12420.868	-756.226	4.043	1.660	166.14
	504000	-12412.422	-752.563	4.036	1.655	166.21
	504200	-12398.346	-747.375	4.054	1.664	166.28
	504400	-12381.454	-742.493	4.106	1.674	166.34
	504600	-12375.824	-735.474	4.160	1.692	166.40
	504800	-12375.824	-727.234	4.145	1.706	166.48
	505000	-12378.639	-720.825	4.129	1.714	166.54
	505200	-12367.378	-717.468	4.152	1.720	166.60
	505400	-12353.302	-711.365	4.155	1.725	166.68
	505600	-12339.226	-705.566	4.145	1.730	166.74
	505800	-12342.041	-699.463	4.141	1.737	166.80
	506000	-12339.226	-693.970	4.129	1.734	166.87
	506200	-12327.965	-685.425	4.162	1.740	166.94
	506400	-12316.704	-677.185	4.186	1.749	167.00
	506600	-12296.997	-669.861	4.183	1.755	167.06
	506800	-12302.628	-662.537	4.178	1.758	167.14
	507000	-12302.628	-656.738	4.151	1.762	167.20
	507200	-12294.182	-651.855	4.174	1.767	167.26
	507400	-12311.073	-646.362	4.191	1.776	167.34
	507600	-12426.498	-641.174	4.186	1.783	167.40
	507800	-12533.478	-639.343	4.177	1.786	167.46
	508000	-12612.305	-635.681	4.191	1.791	167.53
	508200	-12705.208	-632.935	4.262	1.807	167.60
	508400	-12767.143	-634.155	4.253	1.818	167.66
	508600	-12809.372	-634.155	4.232	1.814	167.72
	508800	-12848.785	-632.019	4.184	1.818	167.80
	509000	-12891.014	-628.052	4.196	1.814	167.86
	509200	-12938.873	-624.390	4.232	1.821	167.92
	509400	-12981.102	-618.591	4.255	1.833	168.00
	509600	-13054.298	-614.014	4.176	1.827	168.06
	509800	-13102.158	-610.657	4.209	1.827	168.12
	510000	-13155.647	-608.826	4.242	1.837	168.19
	510200	-13200.691	-607.910	4.233	1.844	168.26
	510400	-13245.735	-606.384	4.254	1.851	168.32
	510600	-13282.333	-604.858	4.261	1.863	168.38
	510800	-13307.671	-601.196	4.299	1.868	168.46
	511000	-13327.377	-597.839	4.326	1.887	168.52
	511200	-13349.899	-594.788	4.389	1.899	168.58
	511400	-13378.052	-592.651	4.302	1.901	168.66
	511600	-13414.650	-590.210	4.279	1.895	168.72
	511800	-13437.172	-591.125	4.293	1.891	168.78
	512000	-13456.879	-591.431	4.238	1.885	168.85
	512200	-13473.770	-590.820	4.254	1.876	168.92
	512400	-13496.292	-591.736	4.242	1.874	168.98
	512600	-13518.814	-592.957	4.209	1.870	169.04
	512800	-13541.336	-591.736	4.228	1.869	169.12
	513000	-13544.151	-588.989	4.289	1.874	169.18
	513200	-13544.151	-588.074	4.210	1.871	169.24
	513400	-13555.412	-588.074	4.206	1.866	169.32
	513600	-13569.489	-588.684	4.213	1.867	169.38
	513800	-13575.119	-588.684	4.208	1.866	169.44
	514000	-13575.119	-589.294	4.226	1.864	169.51
	514200	-13617.348	-590.515	4.257	1.871	169.58
	514400	-13673.653	-592.651	4.207	1.868	169.64
	514600	-13707.436	-595.703	4.225	1.863	169.70
	514800	-13738.403	-597.229	4.254	1.870	169.78
	515000	-13766.556	-599.365	4.234	1.873	169.84
	515200	-13769.371	-601.807	4.219	1.867	169.90
	515400	-13789.078	-606.689	4.182	1.860	169.98
	515600	-13803.154	-609.131	4.195	1.858	170.04
	515800	-13851.013	-613.708	4.217	1.857	170.10
	516000	-13907.318	-620.117	4.204	1.856	170.17
	516200	-13941.101	-631.104	4.185	1.850	170.24
	516400	-13957.993	-639.648	4.129	1.838	170.30
	516600	-13977.699	-643.005	4.117	1.823	170.36
	516800	-14003.036	-646.667	4.141	1.815	170.44
	517000	-14036.819	-651.245	4.149	1.816	170.50
	517200	-14064.972	-654.907	4.156	1.818	170.56
	517400	-14231.071	-660.706	4.161	1.817	170.64
	517600	-14388.725	-670.471	4.120	1.813	170.70
	517800	-14515.411	-681.763	4.131	1.806	170.76
	518000	-14616.760	-692.749	4.132	1.802	170.83
	518200	-14718.109	-702.209	4.176	1.803	170.90
	518400	-14813.828	-711.365	4.159	1.806	170.96
	518600	-14881.393	-719.604	4.145	1.799	171.02
	518800	-14934.883	-729.370	4.143	1.794	171.10
	519000	-14979.927	-739.136	4.149	1.796	171.16
	519200	-15055.939	-747.681	4.156	1.796	171.22
	519400	-15168.549	-755.310	4.156	1.793	171.30
	519600	-15264.267	-763.855	4.163	1.790	171.36
	519800	-15337.463	-771.484	4.212	1.800	171.42
	520000	-15396.584	-779.114	4.212	1.805	171.49
	520200	-15444.443	-786.438	4.194	1.805	171.56
	520400	-15483.856	-794.983	4.160	1.789	171.62
	520600	-15528.900	-802.917	4.037	1.763	171.68
	520800	-15559.868	-807.495	4.060	1.744	171.76
	521000	-15602.097	-811.768	4.046	1.739	171.82
	521200	-15621.803	-814.514	4.057	1.735	171.88
	521400	-15641.510	-819.397	4.041	1.729	171.96
	521600	-15652.771	-824.585	4.070	1.729	172.02
	521800	-15675.293	-829.468	4.072	1.730	172.08
	522000	-15697.815	-833.435	4.060	1.724	172.15
	522200	-15717.522	-838.318	4.044	1.720	172.22
	522400	-15740.044	-843.201	3.996	1.707	172.28
	522600	-15754.120	-846.863	3.968	1.693	172.34
	522800	-15762.566	-850.220	3.969	1.683	172.42
	523000	-15765.381	-855.408	3.949	1.677	172.48
	523200	-15768.196	-860.596	3.946	1.668	172.54
	523400	-15785.088	-865.173	3.968	1.666	172.62
	523600	-15796.349	-869.446	3.969	1.667	172.68
	523800	-15799.164	-873.718	3.970	1.663	172.74
	524000	-15804.794	-878.601	3.990	1.667	172.81
	524200	-15801.979	-884.094	3.993	1.670	172.88
	524400	-15799.164	-886.536	3.980	1.668	172.94
	524600	-15810.425	-889.282	4.002	1.669	173.00
	524800	-15804.794	-893.250	3.983	1.666	173.08
	525000	-15804.794	-897.522	4.005	1.667	173.14
	525200	-15813.240	-899.963	4.025	1.671	173.20
	525400	-15804.794	-904.236	4.027	1.671	173.28
	525600	-15793.533	-911.255	3.995	1.664	173.34
	525800	-15779.457	-914.917	3.998	1.655	173.40
	526000	-15779.457	-918.884	3.977	1.647	173.47
	526200	-15771.011	-923.157	4.026	1.639	173.54
	526400	-15762.566	-924.072	4.009	1.645	173.60
	526600	-15754.120	-926.208	3.973	1.641	173.66
	526800	-15742.859	-929.871	3.971	1.632	173.74
	527000	-15742.859	-933.228	3.973	1.624	173.80
	527200	-15737.228	-934.143	4.018	1.624	173.86
	527400	-15725.967	-935.974	4.013	1.636	173.94
	527600	-15711.891	-936.279	4.044	1.641	174.00
	527800	-15703.445	-936.890	4.022	1.639	174.06
	528000	-15709.076	-938.110	4.055	1.645	174.13
	528200	-15697.815	-939.941	4.027	1.645	174.20
	528400	-15683.739	-942.688	4.018	1.635	174.26
	528600	-15664.032	-944.519	4.022	1.631	174.32
	528800	-15649.956	-948.181	3.951	1.620	174.40
	529000	-15638.695	-950.317	4.005	1.617	174.46
	529200	-15624.619	-951.843	4.020	1.616	174.52
	529400	-15610.542	-951.233	4.013	1.620	174.60
	529600	-15599.281	-952.454	4.008	1.619	174.66
	529800	-15582.390	-955.505	4.029	1.616	174.72
	530000	-15565.498	-959.473	4.035	1.622	174.79
	530200	-15540.161	-961.609	4.037	1.619	174.86
	530400	-15531.715	-965.271	4.026	1.620	174.92
	530600	-15506.378	-967.407	4.034	1.617	174.98
	530800	-15495.117	-969.543	4.060	1.618	175.06
	531000	-15483.856	-972.595	4.000	1.607	175.12
	531200	-15461.334	-975.952	3.991	1.598	175.18
	531400	-15444.443	-978.699	4.077	1.600	175.26
	531600	-15475.410	-980.835	4.057	1.614	175.32
	531800	-15514.824	-984.497	4.034	1.609	175.38
	532000	-15531.715	-987.244	4.049	1.606	175.45
	532200	-15537.346	-992.126	4.046	1.603	175.52
	532400	-15534.531	-999.146	4.023	1.598	175.58
	532600	-15534.531	-1004.333	4.032	1.592	175.64
	532800	-15540.161	-1006.775	4.010	1.589	175.72
	533000	-15540.161	-1008.911	3.980	1.581	175.78
	533200	-15528.900	-1009.827	3.971	1.566	175.84
	533400	-15523.270	-1010.132	3.928	1.557	175.92
	533600	-15512.009	-1007.996	3.929	1.548	175.98
	533800	-15503.563	-1003.723	3.896	1.541	176.04
	534000	-15483.856	-999.451	3.847	1.532	176.11
	534200	-15472.595	-998.840	3.796	1.509	176.18
	534400	-15438.812	-1002.502	3.813	1.498	176.24
	534600	-15430.367	-1003.723	3.834	1.496	176.30
	534800	-15416.290	-1005.249	3.821	1.498	176.38
	535000	-15421.921	-1007.690	3.821	1.499	176.44
	535200	-15416.290	-1007.690	3.818	1.500	176.50
	535400	-15424.736	-1008.606	3.830	1.501	176.58
	535600	-15433.182	-1007.690	3.843	1.505	176.64
	535800	-15438.812	-1008.301	3.850	1.508	176.70
	536000	-15450.073	-1009.521	3.829	1.507	176.77
	536200	-15447.258	-1014.709	3.857	1.506	176.84
	536400	-15438.812	-1015.320	3.863	1.511	176.90
	536600	-15441.628	-1013.489	3.862	1.522	176.96
	536800	-15435.997	-1011.047	3.851	1.517	177.04
	537000	-15424.736	-1007.996	3.850	1.513	177.10
	537200	-15419.106	-1006.470	3.860	1.515	177.16
	537400	-15419.106	-1006.470	3.847	1.516	177.24
	537600	-15421.921	-1006.470	3.849	1.509	177.30
	537800	-15419.106	-1007.996	3.864	1.511	177.36
	538000	-15413.475	-1007.996	3.929	1.524	177.43
	538200	-15405.029	-1005.859	3.909	1.530	177.50
	538400	-15393.768	-1006.470	3.911	1.531	177.56
	538600	-15382.507	-1005.554	3.914	1.532	177.62
	538800	-15371.246	-1005.249	3.905	1.535	177.70
	539000	-15357.170	-1002.808	3.905	1.536	177.76
	539200	-15340.279	-1000.061	3.913	1.535	177.82
	539400	-15320.572	-999.451	3.917	1.541	177.90
	539600	-15314.941	-996.704	3.928	1.542	177.96
	539800	-15351.540	-993.958	3.934	1.546	178.02
	540000	-15376.877	-992.126	3.927	1.547	178.09
	540200	-15402.214	-992.737	3.990	1.558	178.16
	540400	-15427.551	-989.990	4.030	1.570	178.22
	540600	-15433.182	-986.328	3.997	1.577	178.28
	540800	-15472.595	-983.887	4.017	1.583	178.36
	541000	-15503.563	-984.497	3.961	1.579	178.42
	541200	-15528.900	-983.887	3.910	1.570	178.48
	541400	-15551.422	-982.056	3.903	1.557	178.56
	541600	-15559.868	-980.225	3.868	1.546	178.62
	541800	-15571.129	-977.478	3.863	1.543	178.68
	542000	-15596.466	-976.562	3.917	1.546	178.75
	542200	-15686.554	-976.868	3.923	1.556	178.82
	542400	-15776.642	-978.699	3.967	1.559	178.88
	542600	-15861.099	-981.750	3.962	1.569	178.94
	542800	-15979.340	-982.666	3.931	1.569	179.02
	543000	-16089.134	-985.107	3.942	1.576	179.08
	543200	-16198.929	-984.802	3.966	1.581	179.14
	543400	-16291.832	-986.938	4.007	1.592	179.22
	543600	-16367.844	-989.075	4.012	1.599	179.28
	543800	-16429.779	-988.159	4.049	1.606	179.34
	544000	-16480.453	-988.464	4.029	1.613	179.41
	544200	-16533.943	-990.601	4.037	1.617	179.48
	544400	-16587.433	-991.516	4.079	1.626	179.54
	544600	-16635.292	-989.075	4.083	1.638	179.60
	544800	-16680.336	-986.938	4.077	1.645	179.68
	545000	-16722.565	-984.802	4.040	1.637	179.74
	545200	-16753.532	-982.666	4.088	1.641	179.80
	545400	-16787.315	-981.140	4.159	1.665	179.88
	545600	-16812.653	-979.309	4.146	1.677	179.94
	545800	-16835.175	-977.783	4.177	1.688	180.00
	546000	-16857.697	-975.647	4.162	1.690	180.07
	546200	-16877.403	-974.731	4.206	1.700	180.14
	546400	-16897.110	-974.731	4.210	1.704	180.20
	546600	-16914.001	-971.680	4.184	1.707	180.26
	546800	-16914.001	-968.018	4.214	1.716	180.34
	547000	-16925.262	-964.661	4.156	1.714	180.40
	547200	-16939.339	-960.999	4.199	1.713	180.46
	547400	-16939.339	-957.947	4.201	1.717	180.54
	547600	-16939.339	-953.979	4.180	1.717	180.60
	547800	-16944.969	-951.233	4.142	1.716	180.66
	548000	-16947.784	-948.792	4.187	1.718	180.73
	548200	-16970.306	-946.960	4.242	1.732	180.80
	548400	-16992.828	-944.824	4.218	1.737	180.86
	548600	-17006.905	-942.383	4.192	1.735	180.92
	548800	-17020.981	-939.636	4.269	1.741	181.00
	549000	-17037.872	-939.026	4.251	1.752	181.06
	549200	-17043.503	-938.416	4.292	1.759	181.12
	549400	-17049.133	-936.890	4.236	1.759	181.20
	549600	-17046.318	-932.922	4.353	1.772	181.26
	549800	-17049.133	-928.650	4.391	1.799	181.32
	550000	-17051.949	-923.767	4.369	1.813	181.39
	550200	-17057.579	-920.715	4.345	1.818	181.46
	550400	-17049.133	-916.443	4.363	1.821	181.52
	550600	-17049.133	-911.560	4.336	1.822	181.58
	550800	-17051.949	-907.288	4.307	1.813	181.66
	551000	-17054.764	-903.015	4.323	1.808	181.72
	551200	-17049.133	-901.794	4.360	1.820	181.78
	551400	-17043.503	-903.015	4.329	1.820	181.86
	551600	-17040.688	-899.353	4.345	1.820	181.92
	551800	-17032.242	-892.944	4.384	1.829	181.98
	552000	-17032.242	-890.198	4.314	1.818	182.05
	552200	-17029.427	-888.062	4.422	1.834	182.12
	552400	-17020.981	-887.146	4.424	1.852	182.18
	552600	-17009.720	-883.789	4.359	1.861	182.24
	552800	-17015.350	-878.601	4.404	1.853	182.32
	553000	-16998.459	-873.718	4.361	1.852	182.38
	553200	-16992.828	-870.056	4.357	1.844	182.44
	553400	-17032.242	-866.394	4.314	1.850	182.52
	553600	-17066.025	-862.732	4.294	1.837	182.58
	553800	-17099.808	-860.596	4.298	1.837	182.64
	554000	-17122.330	-856.934	4.320	1.832	182.71
	554200	-17232.124	-856.323	4.362	1.841	182.78
	554400	-17339.104	-857.849	4.309	1.849	182.84
	554600	-17426.376	-857.849	4.362	1.856	182.90
	554800	-17510.834	-858.459	4.305	1.858	182.98
	555000	-17589.661	-859.375	4.395	1.866	183.04
	555200	-17645.966	-863.342	4.317	1.857	183.10
	555400	-17696.640	-863.037	4.388	1.865	183.18
	555600	-17755.760	-864.868	4.389	1.882	183.24
	555800	-17803.619	-864.563	4.349	1.874	183.30
	556000	-17843.033	-862.427	4.449	1.891	183.37
	556200	-17879.631	-859.680	4.375	1.883	183.44
	556400	-17913.414	-856.934	4.426	1.900	183.50
	556600	-17944.382	-853.882	4.420	1.909	183.56
	556800	-17975.349	-851.746	4.455	1.918	183.64
	557000	-18003.502	-850.220	4.362	1.909	183.70
	557200	-18026.024	-851.746	4.356	1.907	183.76
	557400	-18042.915	-851.135	4.441	1.907	183.84
	557600	-18065.437	-850.525	4.416	1.909	183.90
	557800	-18085.144	-851.135	4.366	1.910	183.96
	558000	-18096.405	-847.473	4.447	1.915	184.03
	558200	-18110.481	-843.506	4.415	1.923	184.10
	558400	-18141.449	-841.980	4.442	1.923	184.16
	558600	-18237.167	-843.201	4.413	1.921	184.22
	558800	-18330.070	-848.083	4.391	1.923	184.30
	559000	-18406.082	-849.609	4.483	1.927	184.36
	559200	-18468.018	-852.051	4.490	1.932	184.42
	559400	-18529.953	-849.609	4.406	1.931	184.50
	559600	-18589.073	-849.915	4.422	1.927	184.56
	559800	-18645.378	-850.220	4.284	1.911	184.62
	560000	-18690.422	-850.830	4.388	1.904	184.69
	560200	-18741.096	-852.356	4.297	1.903	184.76
	560400	-18786.140	-852.356	4.381	1.918	184.82
	560600	-18834.000	-851.746	4.342	1.926	184.88
	560800	-18873.413	-851.440	4.433	1.921	184.96
	561000	-18915.642	-850.830	4.342	1.929	185.02
	561200	-18963.501	-850.525	4.362	1.930	185.08
	561400	-19019.806	-850.220	4.462	1.931	185.16
	561600	-19076.111	-854.187	4.393	1.941	185.22
	561800	-19152.122	-858.154	4.482	1.942	185.28
	562000	-19287.254	-862.732	4.437	1.958	185.35
	562200	-19422.386	-867.920	4.461	1.960	185.42
	562400	-19630.714	-873.413	4.494	1.956	185.48
	562600	-19827.782	-882.263	4.423	1.945	185.54
	562800	-19999.512	-889.893	4.401	1.945	185.62
	563000	-20143.089	-896.301	4.391	1.939	185.68
	563200	-20278.221	-904.846	4.380	1.938	185.74
	563400	-20402.092	-911.255	4.442	1.945	185.82
	563600	-20511.887	-915.833	4.336	1.940	185.88
	563800	-20618.866	-919.800	4.375	1.933	185.94
	564000	-20723.030	-924.683	4.418	1.937	186.01
	564200	-20813.118	-929.565	4.427	1.939	186.08
	564400	-20911.652	-934.143	4.347	1.937	186.14
	564600	-21001.740	-935.974	4.400	1.944	186.20
	564800	-21089.012	-939.331	4.380	1.942	186.28
	565000	-21176.285	-944.214	4.352	1.930	186.34
	565200	-21266.373	-948.792	4.371	1.913	186.40
	565400	-21362.091	-954.285	4.351	1.914	186.48
	565600	-21452.179	-958.862	4.327	1.912	186.54
	565800	-21542.267	-963.745	4.285	1.902	186.60
	566000	-21621.094	-968.323	4.266	1.892	186.67
	566200	-21705.551	-973.816	4.258	1.889	186.74
	566400	-21784.378	-978.088	4.285	1.880	186.80
	566600	-21851.944	-983.582	4.281	1.891	186.86
	566800	-21930.771	-991.821	4.250	1.881	186.94
	567000	-22003.967	-998.840	4.215	1.870	187.00
	567200	-22060.272	-1002.808	4.222	1.864	187.06
	567400	-22139.099	-1007.996	4.204	1.858	187.14
	567600	-22206.665	-1013.184	4.209	1.849	187.20
	567800	-22271.416	-1018.066	4.215	1.850	187.26
	568000	-22330.536	-1024.780	4.241	1.851	187.33
	568200	-22386.841	-1029.663	4.270	1.859	187.40
	568400	-22445.961	-1036.377	4.214	1.855	187.46
	568600	-22524.788	-1040.955	4.228	1.847	187.52
	568800	-22648.659	-1047.668	4.228	1.848	187.60
	569000	-22766.899	-1057.739	4.222	1.845	187.66
	569200	-22873.878	-1067.810	4.242	1.841	187.72
	569400	-22980.858	-1079.712	4.284	1.850	187.80
	569600	-23073.761	-1089.783	4.241	1.850	187.86
	569800	-23163.849	-1097.412	4.238	1.848	187.92
	570000	-23256.752	-1103.821	4.212	1.839	187.99
	570200	-23338.394	-1112.366	4.214	1.829	188.06
	570400	-23425.667	-1120.911	4.214	1.824	188.12
	570600	-23515.755	-1130.676	4.192	1.817	188.18
	570800	-23591.766	-1139.832	4.195	1.815	188.26
	571000	-23670.593	-1149.902	4.179	1.810	188.32
	571200	-23746.605	-1158.142	4.168	1.802	188.38
	571400	-23847.954	-1167.908	4.235	1.804	188.46
	571600	-23932.411	-1179.504	4.224	1.804	188.52
	571800	-24002.792	-1192.932	4.212	1.803	188.58
	572000	-24092.880	-1203.308	4.215	1.795	188.65
	572200	-24168.892	-1211.548	4.190	1.794	188.72
	572400	-24247.719	-1219.788	4.195	1.787	188.78
	572600	-24320.915	-1227.417	4.208	1.786	188.84
	572800	-24399.742	-1233.215	4.198	1.783	188.92
	573000	-24472.939	-1239.929	4.202	1.779	188.98
	573200	-24548.950	-1246.033	4.203	1.778	189.04
	573400	-24622.147	-1252.747	4.181	1.771	189.12
	573600	-24692.528	-1260.681	4.175	1.766	189.18
	573800	-24762.909	-1267.395	4.186	1.765	189.24
	574000	-24844.551	-1274.109	4.175	1.762	189.31
	574200	-24917.747	-1282.654	4.188	1.754	189.38
	574400	-24988.129	-1292.419	4.196	1.752	189.44
	574600	-25058.510	-1303.711	4.183	1.749	189.50
	574800	-25128.891	-1316.223	4.183	1.745	189.58
	575000	-25199.272	-1327.515	4.193	1.742	189.64
	575200	-25269.653	-1337.891	4.157	1.732	189.70
	575400	-25340.034	-1349.792	4.161	1.722	189.78
	575600	-25432.938	-1360.168	4.156	1.721	189.84
	575800	-25514.580	-1368.103	4.157	1.714	189.90
	576000	-25630.005	-1380.920	4.151	1.710	189.97
	576200	-25756.691	-1391.907	4.160	1.707	190.04
	576400	-25869.301	-1398.621	4.211	1.714	190.10
	576600	-25987.541	-1410.217	4.157	1.712	190.16
	576800	-26153.641	-1421.204	4.173	1.703	190.24
	577000	-26291.588	-1433.105	4.154	1.694	190.30
	577200	-26426.720	-1446.838	4.159	1.690	190.36
	577400	-26553.406	-1457.520	4.109	1.680	190.44
	577600	-26694.168	-1466.370	4.113	1.668	190.50
	577800	-26826.485	-1473.694	4.112	1.664	190.56
	578000	-26970.062	-1483.459	4.096	1.663	190.63
	578200	-27113.640	-1495.056	4.074	1.649	190.70
	578400	-27231.880	-1505.432	4.077	1.641	190.76
	578600	-27375.458	-1513.367	4.066	1.635	190.82
	578800	-27507.774	-1524.353	4.056	1.629	190.90
	579000	-27642.906	-1536.560	4.059	1.619	190.96
	579200	-27763.962	-1547.241	4.042	1.618	191.02
	579400	-27882.202	-1556.396	4.051	1.612	191.10
	579600	-28000.443	-1563.110	4.135	1.616	191.16
	579800	-28113.052	-1569.214	4.034	1.625	191.22
	580000	-28217.216	-1574.402	4.044	1.620	191.29
	580200	-28335.457	-1581.116	4.047	1.617	191.36
	580400	-28439.621	-1591.187	4.035	1.608	191.42
	580600	-28555.046	-1601.868	4.037	1.600	191.48
	580800	-28684.547	-1612.244	4.026	1.597	191.56
	581000	-28828.125	-1625.061	4.097	1.601	191.62
	581200	-28980.148	-1634.827	3.997	1.593	191.68
	581400	-29104.019	-1641.235	4.046	1.589	191.76
	581600	-29244.781	-1648.865	4.009	1.588	191.82
	581800	-29365.837	-1653.748	4.140	1.604	191.88
	582000	-29489.708	-1660.461	4.154	1.624	191.95
	582200	-29610.764	-1667.175	4.123	1.627	192.02
	582400	-29712.112	-1676.941	4.085	1.617	192.08
	582600	-29824.722	-1683.350	4.193	1.623	192.14
	582800	-29937.332	-1689.148	4.214	1.639	192.22
	583000	-30044.312	-1695.862	4.189	1.642	192.28
	583200	-30145.660	-1701.050	4.172	1.651	192.34
	583400	-30238.564	-1704.102	4.155	1.644	192.42
	583600	-30337.097	-1708.069	4.296	1.668	192.48
	583800	-30430.000	-1713.562	4.124	1.641	192.54
	584000	-30525.719	-1719.360	4.129	1.626	192.61
	584200	-30629.883	-1723.328	4.116	1.619	192.68
	584400	-30717.155	-1727.295	4.134	1.617	192.74
	584600	-30804.428	-1731.262	4.205	1.628	192.80
	584800	-30894.516	-1737.976	4.178	1.631	192.88
	585000	-30978.973	-1741.333	4.183	1.635	192.94
	585200	-31074.692	-1746.521	4.189	1.639	193.00
	585400	-31159.149	-1751.709	4.183	1.636	193.08
	585600	-31254.868	-1755.676	4.128	1.633	193.14
	585800	-31387.184	-1759.644	4.114	1.624	193.20
	586000	-31496.979	-1764.221	4.089	1.619	193.27
	586200	-31618.034	-1768.494	4.143	1.617	193.34
	586400	-31710.938	-1772.156	4.180	1.627	193.40
	586600	-31820.732	-1777.039	4.137	1.629	193.46
	586800	-31922.081	-1782.532	4.059	1.621	193.54
	587000	-32017.799	-1787.415	4.111	1.615	193.60
	587200	-32121.964	-1790.466	4.124	1.616	193.66
	587400	-32223.312	-1795.044	4.055	1.596	193.74
	587600	-32319.031	-1799.622	4.062	1.598	193.80
	587800	-32420.380	-1802.673	4.072	1.595	193.86
	588000	-32499.207	-1802.368	4.112	1.606	193.93
	588200	-32589.294	-1802.673	4.146	1.618	194.00
	588400	-32676.567	-1806.946	4.160	1.629	194.06
	588600	-32766.655	-1811.523	4.161	1.634	194.12
	588800	-32856.743	-1813.660	4.151	1.636	194.20
	589000	-32938.385	-1817.932	4.135	1.636	194.26
	589200	-33025.658	-1818.542	4.163	1.642	194.32
	589400	-33104.485	-1821.899	4.150	1.642	194.40
	589600	-33197.388	-1823.425	4.127	1.642	194.46
	589800	-33281.845	-1824.951	4.116	1.642	194.52
	590000	-33363.487	-1827.393	4.146	1.637	194.59
	590200	-33450.760	-1828.918	4.176	1.645	194.66
	590400	-33535.217	-1829.529	4.188	1.652	194.72
	590600	-33599.968	-1830.444	4.187	1.659	194.78
	590800	-33690.056	-1831.665	4.186	1.664	194.86
	591000	-33760.437	-1835.632	4.204	1.666	194.92
	591200	-33839.264	-1838.684	4.196	1.671	194.98
	591400	-33932.167	-1839.600	4.171	1.672	195.06
	591600	-34016.624	-1840.210	4.147	1.666	195.12
	591800	-34106.712	-1837.769	4.172	1.664	195.18
	592000	-34193.985	-1836.853	4.084	1.661	195.25
	592200	-34272.812	-1835.327	4.110	1.656	195.32
	592400	-34354.454	-1836.243	4.154	1.659	195.38
	592600	-34433.281	-1835.327	4.174	1.672	195.44
	592800	-34514.923	-1834.412	4.170	1.680	195.52
	593000	-34590.935	-1833.801	4.159	1.681	195.58
	593200	-34675.392	-1833.801	4.153	1.680	195.64
	593400	-34754.219	-1834.412	4.137	1.676	195.72
	593600	-34833.046	-1836.548	4.102	1.673	195.78
	593800	-34903.427	-1837.158	4.094	1.665	195.84
	594000	-34970.993	-1836.853	4.184	1.683	195.91
	594200	-35038.559	-1836.243	4.203	1.700	195.98
	594400	-35114.571	-1835.632	4.203	1.705	196.04
	594600	-35193.398	-1834.717	4.178	1.709	196.10
	594800	-35266.594	-1834.412	4.156	1.710	196.18
	595000	-35336.975	-1833.191	4.171	1.715	196.24
	595200	-35401.726	-1833.191	4.151	1.711	196.30
	595400	-35483.368	-1827.698	4.157	1.709	196.38
	595600	-35531.227	-1822.205	4.212	1.716	196.44
	595800	-35598.793	-1819.458	4.136	1.717	196.50
	596000	-35674.805	-1817.932	4.183	1.718	196.57
	596200	-35748.001	-1817.322	4.178	1.729	196.64
	596400	-35832.458	-1816.711	4.177	1.734	196.70
	596600	-35928.177	-1816.101	4.237	1.752	196.76
	596800	-36004.189	-1813.965	4.232	1.758	196.84
	597000	-36068.939	-1813.354	4.236	1.763	196.90
	597200	-36156.212	-1812.439	4.247	1.766	196.96
	597400	-36232.224	-1813.965	4.254	1.772	197.04
	597600	-36313.866	-1814.270	4.173	1.781	197.10
	597800	-36403.954	-1813.049	4.177	1.769	197.16
	598000	-36477.150	-1810.913	4.200	1.764	197.23
	598200	-36550.346	-1808.472	4.190	1.768	197.30
	598400	-36623.543	-1806.641	4.268	1.781	197.36
	598600	-36682.663	-1806.335	4.203	1.789	197.42
	598800	-36758.675	-1805.115	4.250	1.792	197.50
	599000	-36851.578	-1803.284	4.329	1.803	197.56
	599200	-36936.035	-1802.368	4.450	1.837	197.62
	599400	-37017.677	-1801.758	4.457	1.871	197.70
	599600	-37096.504	-1802.063	4.402	1.886	197.76
	599800	-37164.070	-1801.453	4.364	1.873	197.82
	600000	-37237.267	-1803.894	4.346	1.857	197.89
	600200	-37327.354	-1805.420	4.361	1.858	197.96
	600400	-37397.736	-1806.335	4.316	1.854	198.02
	600600	-37485.008	-1806.030	4.306	1.850	198.08
	600800	-37586.357	-1806.030	4.338	1.851	198.16
	601000	-37715.858	-1806.946	4.326	1.859	198.22
	601200	-37856.621	-1809.387	4.288	1.853	198.28
	601400	-37986.122	-1810.608	4.308	1.851	198.36
	601600	-38098.732	-1811.523	4.320	1.854	198.42
	601800	-38205.711	-1813.660	4.295	1.862	198.48
	602000	-38321.136	-1816.711	4.300	1.861	198.55
	602200	-38442.192	-1817.932	4.284	1.857	198.62
	602400	-38557.617	-1821.594	4.328	1.860	198.68
	602600	-38661.781	-1824.646	4.359	1.871	198.74
	602800	-38771.576	-1827.087	4.426	1.890	198.82
	603000	-38858.849	-1829.529	4.400	1.904	198.88
	603200	-38954.567	-1830.444	4.406	1.899	198.94
	603400	-39064.362	-1834.412	4.430	1.917	199.02
	603600	-39162.895	-1835.938	4.442	1.924	199.08
	603800	-39275.505	-1834.412	4.487	1.935	199.14
	604000	-39368.408	-1835.022	4.507	1.950	199.21
	604200	-39500.725	-1838.684	4.431	1.952	199.28
	604400	-39647.118	-1846.619	4.408	1.935	199.34
	604600	-39787.880	-1855.774	4.391	1.925	199.40
	604800	-39923.012	-1863.403	4.357	1.912	199.48
	605000	-40046.883	-1867.371	4.372	1.918	199.54
	605200	-40159.492	-1869.812	4.360	1.909	199.60
	605400	-40283.363	-1872.864	4.368	1.914	199.68
	605600	-40401.604	-1875.610	4.321	1.913	199.74
	605800	-40539.551	-1880.798	4.310	1.905	199.80
	606000	-40674.683	-1886.902	4.290	1.898	199.88
	606200	-40801.369	-1891.785	4.322	1.895	199.94
	606400	-40933.685	-1898.193	4.267	1.891	200.00
	606600	-41057.556	-1905.518	4.371	1.894	200.06
	606800	-41189.873	-1911.621	4.372	1.916	200.14
	607000	-41308.113	-1918.640	4.376	1.920	200.20
	607200	-41420.723	-1922.913	4.397	1.924	200.26
	607400	-41538.963	-1927.795	4.486	1.942	200.34
	607600	-41643.127	-1932.678	4.507	1.960	200.40
	607800	-41764.183	-1939.087	4.499	1.965	200.46
	608000	-41865.532	-1949.158	4.521	1.964	200.53
	608200	-41961.250	-1957.092	4.396	1.960	200.60
	608400	-42079.491	-1958.923	4.323	1.933	200.66
	608600	-42189.285	-1961.060	4.276	1.910	200.72
	608800	-42290.634	-1965.637	4.337	1.906	200.80
	609000	-42389.168	-1973.267	4.334	1.913	200.86
	609200	-42479.256	-1976.624	4.363	1.907	200.92
	609400	-42597.496	-1982.117	4.362	1.914	201.00
	609600	-42724.182	-1988.831	4.430	1.922	201.06
	609800	-42839.607	-1994.019	4.451	1.945	201.12
	610000	-42957.848	-1997.375	4.503	1.958	201.19
	610200	-43078.903	-2000.732	4.424	1.962	201.26
	610400	-43202.774	-2005.310	4.449	1.955	201.32
	610600	-43321.014	-2013.855	4.447	1.952	201.39
	610800	-43427.994	-2018.127	4.423	1.949	201.46
	611000	-43543.419	-2021.790	4.433	1.954	201.52
	611200	-43661.659	-2026.062	4.465	1.955	201.58
	611400	-43777.084	-2031.555	4.431	1.960	201.66
	611600	-43875.618	-2038.269	4.443	1.958	201.72
	611800	-43985.413	-2043.152	4.401	1.957	201.78
	612000	-44103.653	-2048.035	4.461	1.960	201.85
	612200	-44199.371	-2052.917	4.456	1.964	201.92
	612400	-44297.905	-2056.580	4.384	1.955	201.98
	612600	-44407.700	-2060.242	4.506	1.956	202.04
	612800	-44500.603	-2064.514	4.485	1.968	202.12
	613000	-44613.213	-2069.702	4.507	1.971	202.18
	613200	-44714.561	-2076.111	4.565	1.983	202.24
	613400	-44807.465	-2083.435	4.479	1.981	202.32
	613600	-44908.813	-2086.792	4.494	1.976	202.38
	613800	-45015.793	-2090.759	4.494	1.973	202.44
	614000	-45128.403	-2095.337	4.525	1.977	202.51
	614200	-45221.306	-2103.577	4.448	1.968	202.58
	614400	-45345.177	-2110.291	4.445	1.959	202.64
	614600	-45471.863	-2115.784	4.451	1.955	202.70
	614800	-45576.027	-2118.530	4.461	1.958	202.78
	615000	-45674.561	-2122.803	4.444	1.962	202.84
	615200	-45778.725	-2127.380	4.388	1.948	202.90
	615400	-45882.889	-2132.568	4.359	1.937	202.98
	615600	-46001.129	-2137.146	4.360	1.929	203.04
	615800	-46091.217	-2143.555	4.359	1.921	203.10
	616000	-46189.751	-2148.743	4.364	1.924	203.17
	616200	-46293.915	-2154.541	4.368	1.921	203.24
	616400	-46392.448	-2160.034	4.318	1.916	203.30
	616600	-46488.167	-2164.307	4.281	1.902	203.36
	616800	-46581.070	-2167.969	4.285	1.902	203.44
	617000	-46690.865	-2174.377	4.306	1.905	203.50
	617200	-46806.290	-2179.565	4.315	1.903	203.56
	617400	-46916.084	-2182.617	4.369	1.908	203.64
	617600	-47025.879	-2185.059	4.406	1.923	203.70
	617800	-47138.489	-2189.636	4.326	1.919	203.76
	618000	-47242.653	-2193.909	4.264	1.899	203.83
	618200	-47338.371	-2199.402	4.277	1.898	203.90
	618400	-47448.166	-2203.979	4.315	1.902	203.96
	618600	-47555.145	-2210.083	4.319	1.902	204.03
	618800	-47648.048	-2215.576	4.335	1.906	204.10
	619000	-47755.028	-2220.764	4.326	1.904	204.16
	619200	-47864.822	-2226.257	4.257	1.894	204.22
	619400	-47968.987	-2230.835	4.256	1.884	204.30
	619600	-48075.966	-2236.328	4.272	1.882	204.36
	619800	-48166.054	-2240.601	4.248	1.878	204.42
	620000	-48273.033	-2245.789	4.212	1.876	204.50
	620200	-48385.643	-2249.756	4.212	1.866	204.56
	620400	-48478.546	-2251.892	4.255	1.866	204.62
	620600	-48602.417	-2257.080	4.247	1.874	204.68
	620800	-48700.951	-2262.573	4.290	1.876	204.76
	621000	-48793.854	-2266.846	4.279	1.880	204.82
	621200	-48914.909	-2272.339	4.223	1.881	204.88
	621400	-49038.780	-2277.832	4.304	1.880	204.96
	621600	-49300.598	-2285.461	4.387	1.902	205.02
	621800	-49537.079	-2296.448	4.264	1.906	205.08
	622000	-49782.005	-2306.519	4.190	1.885	205.15
	622200	-49987.518	-2316.589	4.178	1.868	205.22
	622400	-50184.586	-2325.745	4.179	1.852	205.28
	622600	-50392.914	-2336.426	4.217	1.860	205.34
	622800	-50592.796	-2347.107	4.204	1.850	205.42
	623000	-50764.526	-2359.314	4.171	1.844	205.48
	623200	-50964.409	-2370.300	4.186	1.843	205.54
	623400	-51172.737	-2382.202	4.183	1.840	205.62
	623600	-51395.142	-2394.104	4.106	1.828	205.68
	623800	-51609.100	-2406.616	4.126	1.819	205.74
	624000	-51823.059	-2416.687	4.157	1.825	205.81
	624200	-52020.126	-2427.368	4.064	1.812	205.88
	624400	-52107.399	-2436.218	4.083	1.796	205.94
	624600	-51814.613	-2438.354	4.084	1.796	205.98
